SIC1.5_0.5_128_90_scan_2019-04-08_13.32.10, 2um, 128 pixels, Left.wsf

Pixels in X: 	128
Lines in Y: 	128
X Range: 	2.000
Y Range: 	2.000
Z-Drive Calibration: 	1.0000
Z-Sense Calibration: 	1.9316
X Calibration: 	0.5952
Y Calibration: 	0.5940
X Offset: 	9.167
Y Offset: 	9.167
Rotation(°): 	90
Scan Rate(Hz): 	0.50
Scan Type: 	Vibrating
Vpp: 	0.200
Phase: 	86.51
Demod Gain : 	4dB
Selected (kHz) : 	149.67
Display Type: 	Z_DRIVE
Samples/Pixel: 	25
XY HV Gain: 	5
Z HV Gain: 	3
Z Sensor Gain: 	640
X GPID: 	100.000000000 %, 256, 4096, 0
Y GPID: 	100.000000000 %, 256, 4096, 0
Z GPID: 	1.0000, 100, 1000, 0
Setpoint: 	752





-1443.2135	-1463.6905	-1470.3695	-1476.1404	-1478.2653	-1481.8171	-1485.4827	-1486.9030	-1490.1265	-1491.9735	-1496.4051	-1497.0922	-1500.8344	-1502.2306	-1503.6509	-1505.2266	-1507.7651	-1510.0148	-1511.4701	-1514.6346	-1516.4313	-1516.2168	-1518.7357	-1521.1954	-1522.7536	-1526.5111	-1528.0102	-1528.4675	-1531.1090	-1532.6934	-1533.3193	-1535.7725	-1537.8930	-1538.7750	-1539.7182	-1542.9111	-1545.5459	-1547.1063	-1549.3450	-1549.6120	-1551.9799	-1553.0675	-1554.7810	-1557.4115	-1558.0746	-1559.8407	-1560.6985	-1562.4536	-1564.7143	-1567.5658	-1567.4432	-1570.4063	-1571.1022	-1573.1178	-1574.6037	-1575.0939	-1578.0067	-1578.3984	-1580.2432	-1581.4009	-1582.9394	-1586.0469	-1587.7320	-1587.6860	-1589.0998	-1591.0759	-1593.2468	-1594.1222	-1595.7263	-1596.4616	-1597.4967	-1600.4292	-1600.5977	-1601.8954	-1605.0030	-1607.1958	-1608.8305	-1609.2485	-1609.4367	-1609.9488	-1612.2225	-1614.7086	-1615.6102	-1616.6782	-1618.6040	-1621.7071	-1620.4094	-1623.7839	-1625.4559	-1625.0073	-1627.3401	-1628.6619	-1628.7341	-1631.4259	-1632.8943	-1634.4700	-1634.6450	-1636.9472	-1637.7110	-1639.6740	-1640.2627	-1642.0769	-1642.9479	-1645.7512	-1645.9723	-1647.9024	-1648.7340	-1648.8347	-1651.4980	-1653.4698	-1655.0739	-1656.8312	-1657.6737	-1658.3018	-1660.0941	-1660.9804	-1662.8143	-1662.4554	-1663.9960	-1664.7904	-1667.9002	-1670.5350	-1670.9224	-1671.2178	-1671.9466	-1673.3450	-1674.7499	-1675.4305
-1443.2091	-1463.4716	-1469.3322	-1474.8973	-1477.4862	-1480.4122	-1484.0559	-1486.7235	-1489.8026	-1492.2755	-1495.1708	-1495.1380	-1499.8059	-1502.1256	-1503.2833	-1504.7014	-1505.5789	-1509.0563	-1510.7370	-1513.9321	-1515.6391	-1515.6325	-1518.7138	-1519.8955	-1522.5544	-1525.5963	-1526.9225	-1527.5987	-1527.2967	-1531.6298	-1532.8072	-1534.3566	-1537.5670	-1537.4247	-1539.4950	-1541.8716	-1544.9835	-1545.9836	-1548.8942	-1549.5267	-1551.4371	-1551.8442	-1554.1595	-1555.7855	-1557.1577	-1558.1074	-1560.6722	-1562.1100	-1563.6157	-1567.1653	-1566.8786	-1569.7323	-1569.9292	-1571.6318	-1574.0063	-1574.8532	-1575.5009	-1577.8447	-1578.8667	-1580.2060	-1582.7884	-1584.3006	-1586.1038	-1587.6379	-1588.5373	-1589.8832	-1591.8046	-1593.4919	-1594.1528	-1595.6037	-1597.1881	-1598.9367	-1600.1250	-1601.4358	-1604.0094	-1605.0817	-1608.0186	-1608.0120	-1607.6356	-1609.2682	-1611.1874	-1612.6996	-1614.2403	-1615.5971	-1618.6981	-1619.6544	-1620.1512	-1622.3024	-1624.2304	-1625.1933	-1625.6682	-1627.6268	-1628.0951	-1630.1216	-1630.9860	-1633.8025	-1634.0345	-1636.0850	-1637.1376	-1640.2145	-1639.0000	-1640.7398	-1642.7531	-1644.4294	-1644.8562	-1645.9832	-1646.8476	-1647.9528	-1650.9772	-1652.6601	-1653.6055	-1656.1703	-1656.3716	-1657.0347	-1658.5556	-1659.7658	-1661.2583	-1661.2168	-1663.2979	-1663.9260	-1665.6571	-1669.7166	-1670.4103	-1668.7186	-1671.0821	-1672.3536	-1673.8855	-1674.7390
-1442.7080	-1462.5175	-1469.6999	-1473.7966	-1476.2629	-1480.3596	-1483.7035	-1485.7803	-1489.4722	-1492.5775	-1494.5077	-1494.7003	-1498.1055	-1501.8958	-1503.5940	-1504.4957	-1504.4869	-1508.5858	-1509.8923	-1512.9210	-1515.2780	-1515.8579	-1517.6064	-1519.5651	-1521.9876	-1524.6488	-1526.0909	-1527.9598	-1525.0186	-1531.1177	-1533.1770	-1534.4922	-1536.6303	-1536.8426	-1539.2280	-1541.3092	-1544.3839	-1545.0141	-1548.8307	-1548.9642	-1550.7587	-1552.0849	-1552.8071	-1555.7461	-1556.3939	-1558.1840	-1559.5430	-1560.5847	-1563.4975	-1565.7187	-1566.8458	-1568.9510	-1568.8985	-1571.1110	-1573.8399	-1574.5512	-1575.7942	-1577.6828	-1578.4356	-1580.2148	-1582.5586	-1583.3924	-1586.3774	-1587.2462	-1588.9925	-1589.8701	-1592.3452	-1593.0301	-1594.0696	-1595.5337	-1597.3260	-1598.6325	-1601.0266	-1601.8801	-1602.4403	-1604.8060	-1606.9441	-1607.6006	-1607.5459	-1609.6512	-1611.3669	-1612.4086	-1613.8179	-1615.7743	-1618.6959	-1619.5187	-1620.0899	-1621.4883	-1624.2741	-1624.6024	-1625.6550	-1627.4167	-1628.3840	-1629.7474	-1631.0101	-1633.4414	-1632.9906	-1636.3520	-1636.9844	-1639.1291	-1638.6170	-1639.5252	-1642.1010	-1644.2128	-1643.9786	-1645.9000	-1646.7798	-1647.9287	-1649.7473	-1652.5835	-1654.3254	-1654.7544	-1656.3650	-1656.6561	-1659.1378	-1659.0087	-1661.0067	-1660.5690	-1663.7247	-1663.9304	-1664.8123	-1668.7799	-1669.3139	-1668.8587	-1670.4387	-1671.5701	-1673.1786	-1673.9336
-1442.7977	-1461.8216	-1468.9864	-1472.2494	-1476.3767	-1480.0598	-1482.5415	-1484.8612	-1491.1157	-1491.9976	-1493.5054	-1494.3589	-1497.4446	-1500.3727	-1503.0579	-1503.8916	-1504.9268	-1507.2027	-1509.1504	-1512.6738	-1514.5821	-1514.9453	-1517.9084	-1517.8450	-1521.2108	-1523.1300	-1525.6051	-1527.0341	-1523.6399	-1530.7238	-1532.1660	-1533.8620	-1536.4793	-1536.3612	-1537.9696	-1541.3223	-1543.5501	-1545.4606	-1548.0276	-1548.2639	-1550.0212	-1551.8923	-1551.9470	-1554.8861	-1556.1269	-1557.8776	-1558.5845	-1560.3243	-1562.8300	-1565.4999	-1567.1259	-1567.8743	-1568.6031	-1570.9140	-1572.7632	-1573.4176	-1575.2996	-1576.5186	-1578.1446	-1579.0462	-1581.7139	-1582.7752	-1586.3533	-1587.0011	-1588.0581	-1589.2683	-1591.9578	-1592.4677	-1593.2030	-1594.4876	-1595.4265	-1599.1490	-1600.1950	-1600.9106	-1601.9282	-1605.3290	-1606.2307	-1606.6071	-1608.0273	-1608.8830	-1610.2114	-1611.7148	-1613.4853	-1615.5030	-1617.1705	-1619.1839	-1619.7988	-1620.6085	-1623.7599	-1623.5104	-1625.5259	-1627.2832	-1627.0972	-1629.7189	-1630.7847	-1631.7038	-1634.0476	-1635.7743	-1636.8947	-1638.7199	-1638.4988	-1638.3172	-1641.8777	-1643.6547	-1644.2172	-1644.6899	-1645.9635	-1647.0052	-1650.3688	-1651.7913	-1654.1088	-1654.6471	-1656.1768	-1655.8245	-1658.6410	-1658.4615	-1660.0832	-1659.8381	-1662.8821	-1663.4358	-1665.7336	-1667.7404	-1668.2372	-1667.9593	-1670.6773	-1671.5133	-1672.9532	-1673.0517
-1441.2177	-1460.9987	-1468.0717	-1471.3018	-1476.4643	-1479.1363	-1482.0163	-1485.8219	-1490.3738	-1491.6037	-1493.0459	-1494.3983	-1496.7596	-1499.4317	-1502.2547	-1503.1782	-1504.7189	-1505.8065	-1508.9228	-1511.9975	-1513.6957	-1514.0087	-1516.4925	-1518.5124	-1520.5105	-1523.0293	-1524.9573	-1525.5679	-1523.0884	-1530.0191	-1531.2950	-1533.2383	-1536.1664	-1534.7439	-1538.0353	-1539.8385	-1542.0532	-1544.9529	-1546.7736	-1548.5703	-1549.0080	-1550.9885	-1552.5839	-1554.3827	-1555.0852	-1556.8469	-1558.1206	-1560.1886	-1561.5826	-1564.5195	-1566.3862	-1567.1828	-1568.4849	-1569.8198	-1571.8332	-1573.2031	-1572.9121	-1576.0108	-1577.4705	-1579.0374	-1580.3111	-1581.5541	-1584.6573	-1586.3314	-1587.6379	-1588.2178	-1591.1984	-1592.2051	-1592.7916	-1592.9557	-1595.2404	-1597.4507	-1599.9390	-1600.1009	-1602.2105	-1603.5586	-1605.2437	-1606.8544	-1607.5262	-1608.5000	-1609.8240	-1611.7083	-1612.2007	-1614.4832	-1616.2886	-1617.1049	-1619.7025	-1620.3985	-1623.1624	-1623.4228	-1625.3990	-1626.0249	-1627.0250	-1629.4300	-1629.4826	-1631.3712	-1632.0080	-1634.0038	-1636.5118	-1638.8730	-1638.3894	-1637.9649	-1640.7223	-1643.1952	-1643.2499	-1644.4688	-1644.8190	-1646.7032	-1649.4759	-1650.6861	-1652.6491	-1654.3583	-1654.8485	-1655.6057	-1657.4264	-1657.6190	-1659.6717	-1659.6674	-1662.3876	-1663.0725	-1665.3507	-1667.2655	-1667.7929	-1668.1475	-1669.3358	-1671.5505	-1671.7649	-1673.0889
-1440.8172	-1460.5632	-1467.8375	-1471.5228	-1475.1818	-1479.0356	-1481.0183	-1484.2222	-1488.8288	-1491.2864	-1493.0284	-1493.1181	-1495.8120	-1498.8167	-1501.2984	-1502.7974	-1504.4978	-1505.5417	-1508.4545	-1510.9383	-1512.5009	-1513.8905	-1516.8317	-1517.8472	-1520.4273	-1521.6703	-1523.9507	-1526.1741	-1524.0995	-1529.4676	-1530.5794	-1532.7087	-1534.4025	-1535.0415	-1538.0178	-1539.3418	-1541.1275	-1544.1125	-1546.3753	-1547.3470	-1548.6710	-1549.8877	-1551.9667	-1553.1113	-1553.8335	-1556.8447	-1558.3153	-1559.4577	-1561.2719	-1564.2328	-1565.1694	-1566.8895	-1567.9312	-1569.6885	-1571.1219	-1572.2752	-1572.6976	-1576.0305	-1576.8140	-1578.3875	-1580.7816	-1581.9787	-1583.1385	-1585.5523	-1587.2330	-1588.1193	-1590.0036	-1591.3254	-1592.2073	-1592.5334	-1594.9559	-1596.3040	-1599.1621	-1600.8647	-1601.1623	-1602.6657	-1604.5653	-1606.3510	-1607.0054	-1607.8917	-1609.9006	-1610.9511	-1613.1614	-1614.2753	-1615.6868	-1617.3828	-1619.3699	-1619.6522	-1622.2302	-1623.5213	-1624.1166	-1625.4646	-1626.1037	-1628.4299	-1628.7188	-1630.8853	-1631.8395	-1635.3453	-1636.4789	-1638.1399	-1638.7877	-1637.8773	-1639.3589	-1642.9632	-1642.9982	-1643.9305	-1644.8168	-1646.4690	-1647.8718	-1650.8634	-1651.8722	-1653.3319	-1654.3867	-1655.1505	-1656.9472	-1657.6146	-1659.4989	-1660.3151	-1662.3810	-1663.5737	-1663.3155	-1666.8454	-1667.1692	-1668.4123	-1669.0775	-1670.8458	-1671.7956	-1672.6381
-1440.8478	-1460.1059	-1466.7477	-1471.8401	-1474.1752	-1478.5892	-1480.5478	-1482.7078	-1489.1811	-1489.6801	-1492.0283	-1493.5798	-1495.4291	-1497.6153	-1500.3771	-1503.0404	-1503.6400	-1506.0144	-1507.8067	-1509.9754	-1511.4526	-1513.1924	-1516.1030	-1516.6370	-1519.5147	-1520.3726	-1523.4714	-1524.8523	-1525.3994	-1527.8176	-1530.6363	-1531.9712	-1533.2777	-1534.8358	-1537.3153	-1539.5913	-1540.5717	-1544.0797	-1545.8720	-1545.8895	-1548.7104	-1549.7324	-1551.5312	-1552.0740	-1553.9845	-1555.3522	-1557.3502	-1559.6043	-1560.6963	-1562.8869	-1565.1869	-1566.6532	-1567.2156	-1569.2683	-1570.5529	-1571.5443	-1573.4526	-1574.8860	-1575.5710	-1578.0548	-1579.7924	-1581.3156	-1582.8671	-1585.7493	-1585.5151	-1588.1675	-1588.8984	-1590.6054	-1590.7279	-1592.4152	-1593.0695	-1596.2471	-1597.9016	-1600.2060	-1600.7093	-1602.3375	-1604.6747	-1605.0095	-1606.7384	-1606.9441	-1609.1806	-1610.4018	-1612.7303	-1612.6361	-1615.1922	-1616.7941	-1618.3589	-1619.0263	-1621.5364	-1622.5103	-1623.7227	-1623.9612	-1625.1451	-1627.4714	-1628.7057	-1630.4870	-1631.1742	-1634.5378	-1636.0806	-1637.3981	-1637.9867	-1636.2338	-1639.5274	-1641.7946	-1642.6787	-1642.7356	-1644.2719	-1644.7358	-1648.2329	-1650.1171	-1651.8241	-1653.4063	-1654.2445	-1654.4918	-1656.1112	-1657.2032	-1658.0786	-1660.0700	-1661.3481	-1661.6566	-1663.6131	-1665.8168	-1666.7009	-1667.5369	-1668.5786	-1670.0580	-1671.4804	-1671.7802
-1439.5194	-1459.8017	-1466.2400	-1470.3980	-1474.0045	-1478.4623	-1479.6506	-1483.9596	-1486.9708	-1489.3146	-1491.7525	-1493.2166	-1494.5055	-1497.2170	-1499.8081	-1502.2306	-1503.0579	-1504.6554	-1507.1983	-1509.6669	-1510.7348	-1513.0808	-1515.2605	-1517.7377	-1518.6766	-1521.3924	-1522.4385	-1523.1694	-1526.4805	-1527.5900	-1530.9383	-1531.2775	-1532.8050	-1534.4660	-1536.9214	-1540.2456	-1539.8889	-1543.1606	-1544.3729	-1545.4671	-1546.9968	-1548.8701	-1550.7894	-1552.6889	-1552.6583	-1554.9058	-1556.7244	-1559.8407	-1559.4927	-1562.7097	-1564.6136	-1565.3795	-1567.3075	-1568.4783	-1569.5857	-1571.6318	-1572.1899	-1574.4264	-1575.3193	-1577.9082	-1580.0638	-1581.0311	-1582.3594	-1584.9177	-1585.0709	-1587.6729	-1588.2528	-1590.6163	-1590.3515	-1591.5420	-1592.1263	-1596.4594	-1597.6915	-1600.0550	-1601.0419	-1601.9020	-1603.1275	-1605.0664	-1605.9593	-1606.4473	-1609.1216	-1610.0297	-1611.3231	-1612.1284	-1615.1047	-1616.6716	-1618.0240	-1619.3064	-1620.8733	-1621.6743	-1623.8737	-1623.0267	-1625.4362	-1627.0622	-1628.1586	-1629.4782	-1630.1960	-1633.1700	-1635.3978	-1637.0523	-1637.4462	-1636.2907	-1638.8140	-1641.4641	-1641.9084	-1642.6240	-1644.2631	-1645.2195	-1648.2526	-1649.8370	-1651.0888	-1652.6951	-1653.9184	-1653.6470	-1656.4964	-1655.9099	-1657.3279	-1659.0240	-1660.6894	-1662.0024	-1664.0114	-1664.8145	-1666.6243	-1667.1824	-1667.5522	-1669.7406	-1670.6510	-1670.4694
-1440.5305	-1459.5500	-1465.1567	-1470.4067	-1473.8644	-1477.0289	-1479.0510	-1483.3665	-1485.7891	-1487.2247	-1491.0719	-1492.3653	-1495.0614	-1497.4008	-1498.9480	-1501.0905	-1503.6072	-1504.7189	-1506.3908	-1509.3583	-1509.8901	-1512.1879	-1515.0548	-1516.6195	-1519.2674	-1520.6877	-1521.6725	-1522.9462	-1527.5484	-1527.5353	-1529.5705	-1530.6275	-1532.6540	-1533.8292	-1536.2649	-1538.6918	-1539.6744	-1542.1977	-1544.4955	-1544.5633	-1546.6905	-1548.6228	-1551.4350	-1551.9514	-1551.1351	-1554.7154	-1556.4552	-1558.5845	-1559.6087	-1563.2830	-1562.8213	-1564.4144	-1566.7517	-1567.7561	-1569.6820	-1570.3385	-1570.6711	-1573.3147	-1575.3040	-1576.7177	-1579.2585	-1581.2127	-1581.3593	-1583.8519	-1584.4122	-1586.8304	-1587.8327	-1590.3296	-1589.7607	-1590.7170	-1593.2424	-1594.9166	-1596.8533	-1599.8339	-1600.7968	-1601.0813	-1602.5497	-1605.6814	-1605.5479	-1606.1913	-1607.7100	-1609.1281	-1610.8570	-1611.5857	-1614.3913	-1616.0632	-1617.2646	-1618.9738	-1619.4925	-1620.7727	-1622.4709	-1622.5081	-1625.0817	-1626.4976	-1627.4145	-1628.9595	-1629.2856	-1632.6098	-1635.0499	-1635.6495	-1636.5883	-1635.9253	-1638.5470	-1640.6413	-1640.5713	-1642.2804	-1643.6525	-1644.6964	-1647.7383	-1649.4168	-1650.1696	-1651.3952	-1652.5791	-1654.1569	-1655.2577	-1655.6844	-1656.9362	-1659.2997	-1659.3238	-1661.9696	-1662.5736	-1664.1799	-1665.2369	-1667.2218	-1666.9460	-1670.4672	-1670.2527	-1670.3928
-1439.7230	-1459.1933	-1464.0822	-1470.7350	-1473.2451	-1476.2520	-1478.2588	-1481.8368	-1484.5942	-1486.9161	-1490.2381	-1492.2690	-1495.2693	-1495.8974	-1498.2302	-1501.3421	-1502.8346	-1504.9705	-1506.3624	-1508.0102	-1509.5181	-1512.4133	-1513.4857	-1516.2846	-1519.1887	-1519.9634	-1520.6221	-1523.3554	-1527.7147	-1526.7956	-1528.3647	-1529.6165	-1532.4986	-1533.4681	-1535.8359	-1537.6698	-1539.6328	-1542.1692	-1543.5435	-1543.0008	-1546.7364	-1547.5549	-1551.2818	-1550.6887	-1550.8485	-1554.6082	-1555.5667	-1558.0462	-1559.8647	-1561.4798	-1562.5302	-1563.8433	-1566.0667	-1567.4148	-1568.5112	-1569.4544	-1570.7783	-1573.3869	-1574.0829	-1576.2056	-1576.9628	-1581.1624	-1580.8057	-1583.6112	-1583.1473	-1586.0557	-1587.8611	-1589.7213	-1589.0429	-1590.6098	-1592.4349	-1593.1636	-1596.6454	-1599.2277	-1599.8361	-1600.1994	-1602.1755	-1603.9416	-1605.2634	-1606.1869	-1606.9397	-1608.8217	-1609.8153	-1610.6950	-1613.7391	-1616.0019	-1616.6431	-1618.2888	-1618.8381	-1620.8865	-1622.0266	-1621.4576	-1624.6265	-1625.7754	-1627.1410	-1628.1651	-1629.1324	-1631.8898	-1633.6055	-1635.0937	-1634.4152	-1636.3060	-1637.7810	-1639.8316	-1640.9520	-1642.7137	-1643.3221	-1646.5763	-1646.9352	-1649.3249	-1649.3512	-1650.5023	-1652.0145	-1653.2072	-1653.8987	-1655.4503	-1656.4964	-1658.1946	-1658.6826	-1660.8097	-1662.1228	-1664.1821	-1664.9765	-1666.3136	-1666.7338	-1669.4824	-1669.1147	-1670.1389
-1438.7229	-1458.8431	-1464.5483	-1469.9931	-1472.0699	-1476.8582	-1479.3114	-1482.9091	-1482.5896	-1486.6097	-1489.4109	-1492.3106	-1494.7528	-1495.8536	-1497.6700	-1500.1582	-1502.4976	-1504.0755	-1505.1938	-1507.8614	-1509.0432	-1510.6604	-1512.9670	-1516.8142	-1518.4096	-1519.8561	-1521.3749	-1522.7667	-1526.1960	-1526.0822	-1528.8352	-1529.8265	-1531.3563	-1532.3410	-1534.8533	-1537.7661	-1538.3876	-1541.2041	-1542.4209	-1543.2459	-1546.2987	-1547.1085	-1550.0825	-1550.8485	-1550.9732	-1553.9451	-1555.8271	-1558.4138	-1560.0420	-1561.1428	-1561.9284	-1563.4975	-1565.5874	-1566.7320	-1567.2462	-1569.0933	-1570.7390	-1572.9668	-1573.6758	-1576.7834	-1577.2276	-1580.2214	-1580.0419	-1582.1406	-1582.3857	-1586.3183	-1587.4847	-1589.3033	-1589.2486	-1591.3122	-1591.2335	-1594.0171	-1597.1247	-1598.8185	-1599.8099	-1600.8603	-1601.5409	-1602.8846	-1604.1298	-1605.6770	-1606.7034	-1608.0339	-1609.3448	-1610.4040	-1612.9513	-1615.3695	-1616.2667	-1617.3347	-1618.1706	-1619.9214	-1621.7203	-1621.2541	-1624.3135	-1625.4975	-1627.6946	-1628.4474	-1629.2090	-1630.4017	-1633.5049	-1634.7523	-1633.7762	-1635.8224	-1637.9386	-1639.0722	-1639.3129	-1642.0441	-1643.6657	-1647.1759	-1646.2721	-1648.3554	-1649.2483	-1650.1806	-1651.8525	-1652.1151	-1654.0453	-1655.1986	-1656.3869	-1657.4549	-1658.0895	-1661.5822	-1662.7924	-1663.3527	-1665.0815	-1665.7818	-1665.8978	-1668.8303	-1668.5808	-1669.9857
-1438.9658	-1458.3704	-1463.9837	-1468.9470	-1472.1159	-1474.7288	-1478.9459	-1482.2876	-1482.9507	-1484.9444	-1489.0258	-1491.2754	-1494.2495	-1495.5691	-1496.6743	-1498.7095	-1501.6814	-1503.8741	-1504.4606	-1508.4895	-1507.9818	-1509.3736	-1512.5687	-1515.0482	-1517.5123	-1519.5432	-1521.4843	-1521.8979	-1524.0951	-1526.3120	-1528.2006	-1528.9512	-1531.1877	-1531.8596	-1534.6476	-1537.9040	-1538.4117	-1540.6417	-1541.9044	-1543.4888	-1545.6772	-1546.6117	-1548.9511	-1550.6821	-1550.6077	-1553.0981	-1554.7810	-1557.0964	-1559.6043	-1560.9502	-1561.6308	-1563.1167	-1564.9550	-1565.7056	-1567.6336	-1568.1129	-1571.0650	-1571.2686	-1573.4460	-1575.6126	-1576.7812	-1579.8581	-1580.1338	-1580.7269	-1582.3813	-1585.2635	-1587.1433	-1588.4016	-1588.9269	-1590.5594	-1591.1000	-1594.2031	-1595.7263	-1598.2451	-1599.5538	-1600.6218	-1600.9369	-1602.9459	-1604.0007	-1604.6112	-1606.5370	-1607.3533	-1608.4672	-1609.9750	-1612.7106	-1613.5794	-1615.0062	-1617.0414	-1618.6674	-1619.2255	-1620.8930	-1620.3109	-1623.8255	-1624.9022	-1627.0447	-1627.7056	-1629.6511	-1630.2332	-1632.3625	-1634.2358	-1632.5967	-1635.3606	-1637.4834	-1638.0852	-1639.5121	-1640.9433	-1642.6130	-1644.4666	-1646.5259	-1647.4210	-1648.8500	-1649.0404	-1650.9837	-1651.6578	-1653.3822	-1654.4414	-1656.2841	-1657.0106	-1656.9909	-1660.6543	-1662.0877	-1662.9347	-1664.8802	-1664.6285	-1665.2675	-1668.9419	-1668.0949	-1669.2833
-1437.8584	-1457.5826	-1463.7693	-1467.6734	-1472.1202	-1474.0132	-1477.4031	-1482.0163	-1482.4408	-1485.5921	-1488.5246	-1490.5773	-1493.8249	-1494.8185	-1496.1162	-1498.4097	-1501.7076	-1503.9092	-1504.2374	-1506.6797	-1508.0453	-1510.1571	-1510.8574	-1515.3699	-1516.7158	-1519.1340	-1519.8299	-1522.3706	-1521.8760	-1525.7058	-1526.7102	-1528.3691	-1531.4197	-1530.4306	-1534.6236	-1537.5998	-1538.1316	-1540.1077	-1541.2763	-1542.2042	-1545.5547	-1545.9464	-1548.4762	-1549.6120	-1550.0650	-1552.2644	-1553.9122	-1557.5144	-1559.3132	-1559.8691	-1561.5060	-1562.7512	-1563.6332	-1565.1694	-1566.7473	-1568.3054	-1568.7541	-1571.6647	-1573.5839	-1574.7416	-1577.0394	-1579.5101	-1579.8209	-1580.1907	-1582.5017	-1583.9920	-1586.5809	-1588.3163	-1588.4016	-1589.6512	-1591.8703	-1592.7500	-1594.6977	-1596.6191	-1598.1795	-1600.0637	-1601.2017	-1601.8013	-1602.7292	-1603.9613	-1605.8324	-1607.4343	-1608.3622	-1609.9641	-1613.1307	-1613.1285	-1614.3759	-1616.4352	-1617.9059	-1619.5187	-1620.2628	-1619.8864	-1623.4688	-1623.8189	-1626.1627	-1626.5917	-1629.3359	-1629.5745	-1631.2027	-1633.8660	-1631.8876	-1635.2206	-1636.9801	-1638.6258	-1639.1663	-1640.4006	-1641.6064	-1647.4845	-1645.0794	-1646.7645	-1648.3992	-1648.9463	-1650.1193	-1651.0078	-1652.2443	-1653.3932	-1655.4765	-1655.6079	-1657.7744	-1660.0941	-1661.2474	-1663.5671	-1664.4140	-1663.2038	-1664.1405	-1667.9221	-1667.6398	-1669.3949
-1438.8651	-1457.1690	-1464.8022	-1466.9578	-1470.7043	-1474.4772	-1477.9239	-1480.7251	-1482.7209	-1484.8612	-1487.6689	-1489.9646	-1493.0962	-1494.6522	-1496.1512	-1497.8429	-1500.6353	-1502.8193	-1503.5743	-1505.6927	-1507.8964	-1509.3014	-1511.0784	-1514.5405	-1517.2891	-1518.8341	-1519.0814	-1521.0204	-1519.9218	-1525.1587	-1526.0712	-1528.3341	-1530.4918	-1530.4152	-1533.8817	-1536.4443	-1537.2278	-1539.4993	-1541.3507	-1541.8278	-1544.2657	-1546.2484	-1548.1326	-1548.5813	-1551.1395	-1551.5444	-1552.4154	-1556.0306	-1557.9674	-1559.4314	-1560.5103	-1563.2546	-1562.3858	-1565.1585	-1565.5721	-1568.6556	-1569.4587	-1571.1657	-1572.7173	-1575.1158	-1576.9541	-1577.4640	-1579.9850	-1580.3505	-1581.3024	-1583.1735	-1586.2548	-1586.7100	-1588.2397	-1589.2354	-1591.4085	-1592.0629	-1594.4920	-1596.5207	-1597.3260	-1599.4794	-1600.9084	-1600.7356	-1602.2959	-1604.3793	-1605.2152	-1605.9877	-1607.9705	-1609.8087	-1611.4260	-1613.3802	-1613.7457	-1616.2339	-1616.9276	-1618.9410	-1620.0483	-1620.5232	-1622.4993	-1624.3070	-1624.8760	-1626.2547	-1628.3140	-1629.4585	-1630.6359	-1633.0344	-1631.5419	-1634.5991	-1637.2777	-1637.5841	-1637.4703	-1638.9496	-1641.1249	-1645.5039	-1644.8671	-1646.0226	-1648.3773	-1648.2023	-1649.6466	-1651.1238	-1651.7759	-1653.7915	-1654.2839	-1655.9361	-1656.3322	-1660.0766	-1660.2911	-1663.0375	-1662.8668	-1662.9566	-1664.5475	-1666.7294	-1666.8147	-1668.9419
-1439.0818	-1457.1865	-1463.8874	-1465.8242	-1470.4592	-1473.8841	-1477.1405	-1479.1144	-1483.0273	-1484.1237	-1487.1043	-1489.7611	-1492.3893	-1494.2473	-1495.8799	-1496.1250	-1500.2217	-1502.5502	-1502.5895	-1505.4410	-1507.8330	-1508.4085	-1512.2886	-1512.3893	-1516.4750	-1518.8495	-1518.4468	-1521.1561	-1519.8058	-1525.0733	-1525.4410	-1527.5353	-1529.1372	-1530.3715	-1533.4352	-1536.7201	-1537.6479	-1539.2958	-1540.7445	-1541.7775	-1544.0359	-1545.5809	-1546.8021	-1548.2289	-1550.3320	-1550.4808	-1552.7086	-1555.2953	-1557.5100	-1558.4488	-1560.7488	-1562.1100	-1562.1013	-1564.9966	-1565.0316	-1567.8502	-1569.7673	-1570.2072	-1571.6909	-1574.7438	-1575.8708	-1576.8928	-1580.2367	-1579.9062	-1580.4139	-1582.9656	-1585.2088	-1585.5852	-1587.5460	-1588.7277	-1590.5944	-1592.2182	-1593.7917	-1595.3696	-1597.4398	-1599.6216	-1599.5057	-1600.3219	-1602.5519	-1602.5213	-1604.3530	-1605.4078	-1607.6072	-1609.4805	-1610.4871	-1612.1875	-1613.7085	-1616.7175	-1616.7744	-1617.8621	-1619.1314	-1620.0155	-1620.9237	-1623.5060	-1623.3878	-1626.4866	-1628.3730	-1628.5262	-1630.1413	-1632.9184	-1630.8241	-1633.8309	-1636.6912	-1637.1727	-1637.5359	-1638.3128	-1640.4334	-1643.8539	-1644.4535	-1646.2196	-1647.4122	-1647.5107	-1649.1061	-1650.4848	-1651.4192	-1652.4325	-1653.2356	-1655.1592	-1656.5576	-1658.6410	-1659.7527	-1661.1817	-1662.6392	-1663.1032	-1663.7553	-1666.2151	-1666.5324	-1667.4756
-1437.3026	-1455.8560	-1463.4694	-1464.6293	-1469.6189	-1473.0897	-1475.1359	-1479.6462	-1483.1433	-1484.6424	-1485.8701	-1489.7545	-1492.1399	-1493.9519	-1495.5385	-1495.8558	-1499.6308	-1501.2371	-1502.0227	-1504.0908	-1506.9883	-1507.9796	-1510.1899	-1513.2975	-1516.5669	-1517.8909	-1518.4293	-1521.8542	-1519.5651	-1524.3096	-1524.4562	-1526.2419	-1529.7697	-1528.6032	-1530.8945	-1535.2013	-1537.2431	-1538.5255	-1540.0158	-1541.7096	-1543.2065	-1544.6093	-1546.1915	-1547.5002	-1549.5464	-1549.8024	-1552.6298	-1554.2558	-1557.4684	-1558.1534	-1560.2805	-1561.5389	-1561.4820	-1563.6529	-1564.8368	-1567.3141	-1569.0517	-1570.3604	-1572.0542	-1573.6692	-1575.7154	-1577.4333	-1579.1381	-1579.6633	-1581.3725	-1582.7118	-1584.5216	-1585.6005	-1585.2722	-1587.7320	-1590.1633	-1592.8463	-1593.0717	-1594.4592	-1596.0195	-1598.2123	-1599.4050	-1599.7376	-1601.3965	-1602.1930	-1604.4383	-1605.2831	-1608.0646	-1610.1632	-1611.8155	-1611.8089	-1613.6910	-1615.5642	-1616.4330	-1617.7133	-1619.2867	-1618.2494	-1620.6042	-1623.0136	-1623.9065	-1625.3355	-1628.3052	-1627.5217	-1630.1894	-1631.8833	-1630.7387	-1633.1263	-1635.8115	-1636.3629	-1637.5578	-1638.3588	-1640.6391	-1642.2191	-1644.9065	-1645.2982	-1646.7754	-1648.1541	-1648.7953	-1649.9486	-1651.3273	-1650.9531	-1654.1329	-1653.7521	-1655.6494	-1658.3259	-1659.4945	-1660.8688	-1661.9192	-1662.0352	-1662.6458	-1665.9372	-1666.2195	-1667.4625
-1436.9021	-1456.0135	-1462.3818	-1464.8153	-1468.9580	-1473.6412	-1476.5255	-1477.5760	-1483.2527	-1484.0624	-1485.7869	-1487.8943	-1491.6978	-1493.0502	-1495.4356	-1496.0768	-1498.4359	-1500.2458	-1501.7207	-1504.3031	-1506.4959	-1508.2947	-1510.1111	-1513.1311	-1515.7638	-1516.8427	-1516.9368	-1521.3071	-1518.8341	-1522.4800	-1524.1936	-1525.8940	-1528.2662	-1527.9204	-1531.0280	-1534.4091	-1535.2232	-1538.9632	-1539.6088	-1541.3201	-1541.6243	-1544.9222	-1545.5569	-1546.3469	-1549.3581	-1549.5660	-1550.8178	-1554.0698	-1556.2713	-1557.7091	-1559.7838	-1561.2697	-1561.2106	-1563.2896	-1564.9222	-1566.0164	-1568.8525	-1569.2377	-1571.2751	-1572.0586	-1575.9780	-1576.3851	-1578.5713	-1580.1404	-1581.1799	-1581.9064	-1583.8279	-1584.9965	-1585.1956	-1587.2155	-1589.6906	-1590.9358	-1592.2905	-1595.1573	-1594.6605	-1597.5120	-1599.0921	-1599.7245	-1600.5802	-1602.3397	-1603.1778	-1605.1474	-1607.0448	-1609.4936	-1610.1414	-1612.1066	-1612.8419	-1614.2271	-1615.7306	-1616.5447	-1618.7134	-1618.2429	-1620.1271	-1621.9457	-1624.1538	-1623.8518	-1627.8084	-1628.1739	-1630.1566	-1630.7606	-1631.2311	-1632.4216	-1635.5554	-1635.5029	-1637.1792	-1637.4462	-1638.9715	-1641.7114	-1644.0290	-1645.0116	-1646.7120	-1647.3794	-1647.8631	-1649.3753	-1650.1478	-1651.4914	-1652.3624	-1653.0408	-1656.2775	-1657.7219	-1658.6848	-1660.5274	-1660.4070	-1662.1906	-1663.3264	-1663.9610	-1664.9196	-1666.9395
-1437.6265	-1455.0988	-1462.2461	-1465.2727	-1468.0717	-1473.0109	-1475.7443	-1477.2302	-1482.9310	-1483.2680	-1484.8284	-1488.4524	-1490.5511	-1492.1574	-1495.0242	-1494.7003	-1497.5015	-1498.7051	-1501.2677	-1503.7516	-1506.4061	-1507.8330	-1510.0214	-1512.4505	-1514.4311	-1516.0330	-1516.4072	-1520.2500	-1519.0968	-1522.5107	-1524.1367	-1526.1369	-1526.9794	-1528.1262	-1533.2208	-1534.0830	-1535.4727	-1537.4882	-1538.5693	-1541.0115	-1541.9285	-1543.6223	-1544.1256	-1546.3119	-1548.7213	-1549.4785	-1551.5750	-1554.3258	-1555.3435	-1557.4006	-1559.9129	-1560.5957	-1560.6963	-1563.2743	-1564.2963	-1565.8785	-1568.3383	-1568.8000	-1569.6404	-1572.0389	-1575.1311	-1574.9823	-1578.5844	-1579.3438	-1580.0353	-1580.9567	-1583.3202	-1583.8016	-1584.2655	-1586.7078	-1589.2486	-1590.7323	-1592.5640	-1593.7348	-1594.8246	-1598.0635	-1598.5559	-1599.4334	-1599.9849	-1601.6591	-1601.8144	-1604.5128	-1605.3400	-1608.6795	-1609.6577	-1610.7804	-1611.6426	-1613.9973	-1614.9602	-1616.3521	-1617.6170	-1617.9168	-1618.7090	-1621.1403	-1623.0530	-1624.2238	-1626.6070	-1627.9113	-1629.7627	-1630.4345	-1631.6797	-1631.3821	-1634.4897	-1636.5183	-1636.6080	-1637.5797	-1639.5843	-1639.8097	-1642.9369	-1644.6067	-1645.5018	-1646.7776	-1646.5675	-1648.8391	-1649.6050	-1650.7408	-1651.1172	-1652.6229	-1655.1724	-1656.0674	-1658.5119	-1659.2975	-1660.0875	-1662.3153	-1662.0943	-1663.6744	-1664.7926	-1665.6352
-1437.3135	-1454.7027	-1461.4080	-1464.4586	-1467.5202	-1472.3106	-1474.1883	-1477.3571	-1482.4124	-1483.3665	-1484.0756	-1487.3297	-1490.0127	-1491.7438	-1494.5799	-1494.2582	-1496.9500	-1498.0004	-1500.3180	-1503.1804	-1505.2135	-1506.2311	-1508.5048	-1511.9428	-1513.4178	-1515.3961	-1516.7048	-1519.6548	-1519.4316	-1522.5326	-1523.3401	-1525.1390	-1527.0057	-1528.7367	-1529.8287	-1533.7548	-1534.7855	-1537.3853	-1538.7640	-1540.8387	-1540.9218	-1541.5980	-1544.5414	-1545.9924	-1548.0057	-1547.8941	-1552.6714	-1553.0150	-1554.5994	-1557.3437	-1558.9390	-1560.2805	-1559.6918	-1562.5521	-1564.1409	-1565.1279	-1567.4410	-1568.5112	-1569.7389	-1572.8004	-1573.9209	-1575.1989	-1577.6587	-1578.0855	-1579.4510	-1581.0398	-1582.0881	-1584.2634	-1583.4055	-1585.9791	-1588.1040	-1590.9315	-1592.1570	-1592.1942	-1594.1134	-1596.0130	-1598.0438	-1598.9739	-1599.4947	-1600.9566	-1601.6985	-1603.7009	-1604.9658	-1608.0755	-1610.4302	-1610.5615	-1611.5638	-1613.7676	-1614.6385	-1615.6627	-1617.7899	-1617.5491	-1618.9278	-1621.1644	-1622.7072	-1624.5674	-1626.2765	-1627.0862	-1629.7889	-1630.4455	-1631.6600	-1630.2222	-1634.5531	-1635.2272	-1635.0871	-1637.3258	-1639.2757	-1638.0283	-1641.9500	-1644.3441	-1644.7117	-1646.7754	-1646.3771	-1648.3379	-1649.6357	-1650.7430	-1651.5724	-1652.4259	-1653.2159	-1656.1943	-1658.3477	-1659.1224	-1659.8950	-1661.2562	-1661.3765	-1663.8210	-1664.7817	-1665.1690
-1435.4008	-1455.1403	-1459.8958	-1464.5768	-1467.7259	-1470.9845	-1474.3218	-1476.1732	-1481.3247	-1483.0032	-1484.4126	-1486.3581	-1489.3278	-1491.7766	-1493.3807	-1494.5406	-1496.2497	-1498.3637	-1500.0882	-1503.1979	-1504.4497	-1506.3230	-1508.6821	-1511.2338	-1513.0305	-1514.6477	-1515.5997	-1517.7946	-1520.6330	-1520.7993	-1522.1474	-1525.2725	-1525.3534	-1526.9838	-1529.6537	-1532.6080	-1533.4024	-1537.3481	-1538.0375	-1539.3593	-1540.2784	-1541.4645	-1544.1169	-1544.7756	-1547.0209	-1548.2771	-1551.5159	-1552.9975	-1553.6934	-1556.8732	-1559.0506	-1558.8449	-1560.7182	-1561.5651	-1564.0183	-1564.0621	-1566.5963	-1567.3622	-1568.6556	-1571.0322	-1573.3103	-1574.7875	-1577.0175	-1578.4334	-1578.2824	-1580.1601	-1581.6613	-1584.2524	-1583.3223	-1585.1759	-1588.0187	-1590.1174	-1590.1677	-1592.4633	-1593.8771	-1594.9494	-1596.8839	-1598.2167	-1599.1227	-1600.1600	-1601.2520	-1603.6068	-1604.1210	-1606.0403	-1609.7015	-1609.0647	-1611.5704	-1612.4720	-1614.1111	-1614.7655	-1616.7175	-1616.8138	-1619.1861	-1619.6610	-1622.1973	-1624.3923	-1625.2589	-1626.6573	-1629.3447	-1628.6291	-1631.0757	-1629.5504	-1634.5137	-1635.4679	-1634.9580	-1636.0040	-1637.9736	-1638.7242	-1641.2803	-1643.8561	-1644.7292	-1646.2546	-1646.8214	-1648.0381	-1648.7012	-1650.0274	-1651.3689	-1652.5069	-1653.8681	-1656.0696	-1657.8006	-1658.5075	-1659.0393	-1660.3392	-1661.3699	-1662.9806	-1663.8822	-1664.7292
-1436.4469	-1453.2430	-1458.9854	-1465.7520	-1467.5421	-1471.2514	-1473.1357	-1475.4729	-1479.7140	-1482.1344	-1483.6838	-1486.1567	-1488.2729	-1491.1835	-1492.1924	-1494.6740	-1495.9411	-1496.9522	-1499.0268	-1502.2175	-1503.2373	-1506.0450	-1508.8375	-1510.8683	-1511.8312	-1513.1530	-1514.6740	-1517.0834	-1521.3333	-1519.3594	-1521.3858	-1524.7319	-1524.9026	-1526.8087	-1530.0870	-1530.3912	-1533.9430	-1536.3524	-1537.5101	-1538.2498	-1540.1865	-1541.2741	-1543.4472	-1544.3883	-1546.0033	-1548.1917	-1550.2904	-1552.1440	-1552.7611	-1556.4771	-1558.0243	-1558.1359	-1560.4206	-1561.0837	-1563.3574	-1563.6047	-1565.1366	-1567.5023	-1568.5308	-1569.8330	-1572.8573	-1573.7590	-1576.0174	-1577.1204	-1577.6828	-1579.4685	-1581.4578	-1582.3551	-1581.7467	-1584.9330	-1587.6160	-1588.5855	-1590.6842	-1592.7041	-1593.5619	-1595.6234	-1596.4003	-1597.5142	-1598.7222	-1600.2519	-1599.7092	-1601.9151	-1604.2086	-1605.2787	-1608.6882	-1609.2266	-1610.4959	-1611.8877	-1613.3649	-1614.2906	-1616.3214	-1616.0085	-1618.4333	-1619.5625	-1621.9172	-1623.5213	-1624.2829	-1626.1627	-1629.6883	-1627.8062	-1629.3272	-1629.1631	-1632.7652	-1634.1067	-1634.6210	-1636.1244	-1637.9014	-1636.4986	-1640.6107	-1642.0725	-1643.3834	-1644.5673	-1645.6965	-1646.6704	-1647.4013	-1648.8522	-1651.3930	-1651.6009	-1654.3145	-1654.7697	-1656.9318	-1657.7547	-1658.1442	-1659.6849	-1660.7441	-1662.7268	-1663.1776	-1664.0836
-1435.4643	-1453.7529	-1459.7119	-1465.4171	-1466.7958	-1470.3870	-1473.3873	-1475.1818	-1478.6570	-1480.8586	-1483.1170	-1485.3273	-1488.2314	-1489.8946	-1491.6081	-1494.2167	-1495.3503	-1496.8143	-1497.9610	-1501.4341	-1502.2460	-1504.2856	-1508.7237	-1511.2228	-1511.2206	-1512.3411	-1514.7374	-1516.0330	-1520.2829	-1519.9262	-1520.9897	-1523.6115	-1524.5853	-1527.2092	-1529.8769	-1530.7172	-1533.0545	-1535.6499	-1538.0988	-1538.5102	-1540.0333	-1540.1734	-1542.9417	-1544.4867	-1545.2899	-1547.0866	-1549.3253	-1552.0565	-1551.7435	-1555.5711	-1557.4465	-1558.7443	-1559.5802	-1560.1186	-1562.0619	-1562.6943	-1565.3292	-1567.6314	-1568.8088	-1570.4873	-1572.1921	-1573.6495	-1575.5053	-1575.5163	-1577.4858	-1579.3175	-1580.7706	-1582.0421	-1582.1056	-1585.4736	-1587.1192	-1589.0013	-1590.0255	-1592.3058	-1592.7391	-1593.6254	-1595.8510	-1597.4704	-1598.0416	-1599.4466	-1599.4706	-1602.7292	-1604.4952	-1605.2940	-1608.3469	-1608.7101	-1610.2770	-1611.8024	-1612.9075	-1612.7872	-1615.1069	-1615.7371	-1617.8971	-1619.6172	-1621.6218	-1622.8976	-1623.3900	-1625.7141	-1628.0754	-1628.1017	-1627.5414	-1628.4037	-1631.7738	-1632.8702	-1634.1833	-1635.9581	-1637.9561	-1636.3826	-1639.9848	-1641.4882	-1642.1644	-1644.1690	-1645.1866	-1645.5061	-1647.6727	-1649.0776	-1650.2528	-1652.1436	-1653.1174	-1654.1788	-1657.1266	-1656.7218	-1657.0632	-1658.5666	-1659.6980	-1662.5692	-1662.4926	-1664.1492
-1434.3832	-1453.0832	-1458.1144	-1464.7825	-1466.6273	-1469.8355	-1473.5143	-1475.3460	-1477.5256	-1480.2152	-1483.1148	-1485.2485	-1486.9577	-1489.5553	-1490.8881	-1493.3829	-1495.0154	-1495.8733	-1498.2171	-1501.4538	-1502.1037	-1504.5898	-1509.3627	-1508.8440	-1510.1593	-1512.0304	-1513.8271	-1515.8513	-1517.9807	-1519.6307	-1520.2304	-1522.9615	-1523.6136	-1526.1259	-1530.0782	-1530.7479	-1532.4351	-1534.7001	-1536.4968	-1537.7639	-1539.8692	-1539.9545	-1542.8038	-1543.1627	-1544.2198	-1546.1740	-1548.6250	-1552.4416	-1551.1767	-1554.8226	-1556.0416	-1557.2408	-1559.5190	-1559.1644	-1561.1471	-1562.7884	-1564.8806	-1566.6247	-1568.0713	-1569.5594	-1571.3036	-1573.3541	-1574.7656	-1575.4944	-1576.7221	-1578.5735	-1579.9084	-1581.5760	-1582.0290	-1583.9723	-1585.6267	-1588.5023	-1589.7256	-1591.8550	-1592.9864	-1593.1724	-1595.3389	-1596.7286	-1597.0984	-1598.5428	-1600.3307	-1602.3046	-1604.0554	-1604.4909	-1607.3555	-1607.9836	-1609.5789	-1611.1940	-1611.9774	-1612.3320	-1614.6101	-1615.5752	-1617.5426	-1618.7134	-1620.8952	-1623.4754	-1622.5716	-1624.9919	-1627.0403	-1627.0644	-1625.2217	-1628.5328	-1630.9291	-1633.5005	-1633.8528	-1635.9296	-1637.2296	-1636.9363	-1639.9476	-1641.5364	-1641.6742	-1644.0005	-1644.9700	-1644.9393	-1646.7382	-1648.0753	-1649.8633	-1651.4608	-1652.6951	-1654.1744	-1655.8792	-1656.6101	-1657.2317	-1657.2645	-1658.5053	-1662.2278	-1661.8186	-1664.1733
-1434.4905	-1452.0569	-1456.9327	-1464.6490	-1467.1285	-1469.6889	-1472.1006	-1476.0616	-1476.2213	-1480.3684	-1482.4714	-1484.3316	-1486.1502	-1489.8158	-1489.6385	-1493.5623	-1494.5296	-1495.7661	-1497.9260	-1500.5302	-1501.0642	-1504.2615	-1507.6098	-1508.2116	-1510.0914	-1511.6583	-1513.5907	-1514.6061	-1516.7245	-1519.3572	-1520.1122	-1522.6223	-1523.3467	-1525.2593	-1530.3474	-1530.9798	-1532.1025	-1533.8467	-1535.7637	-1537.8580	-1539.3068	-1539.9677	-1542.5172	-1542.8476	-1542.9220	-1545.3293	-1548.2464	-1550.7872	-1551.5181	-1553.2951	-1554.8336	-1556.7747	-1559.0047	-1558.3372	-1561.1274	-1562.3770	-1563.4690	-1566.0229	-1567.4738	-1569.5835	-1570.8834	-1572.8792	-1573.4351	-1574.6124	-1576.0502	-1578.4159	-1579.4445	-1580.9764	-1581.2433	-1582.2062	-1584.3728	-1586.5875	-1588.5089	-1592.0913	-1592.1023	-1592.4940	-1595.0785	-1594.8706	-1596.2449	-1598.2670	-1599.7158	-1600.3460	-1601.6240	-1603.7709	-1606.4736	-1607.5306	-1608.9881	-1610.3580	-1611.4172	-1612.7303	-1613.9339	-1614.4503	-1617.4135	-1618.3917	-1620.3613	-1621.6743	-1622.3264	-1624.3901	-1627.4867	-1626.2393	-1624.5827	-1629.0493	-1630.5549	-1632.6492	-1633.4852	-1635.7589	-1636.9669	-1638.3456	-1638.4179	-1639.5055	-1641.1052	-1642.4292	-1644.8321	-1643.5913	-1646.2305	-1647.2678	-1649.8633	-1651.5637	-1652.8045	-1653.3035	-1654.4567	-1656.3826	-1656.9559	-1656.5970	-1658.6213	-1661.1752	-1661.6107	-1663.4861
-1434.4861	-1452.3829	-1457.6592	-1462.5459	-1465.3909	-1469.7042	-1472.3019	-1475.4510	-1475.6589	-1479.7228	-1481.0555	-1484.0362	-1485.6731	-1488.5706	-1489.1374	-1492.5579	-1494.3458	-1495.9849	-1497.2104	-1500.2282	-1500.3158	-1504.1302	-1506.6578	-1507.7848	-1509.8463	-1511.3366	-1512.9955	-1514.8359	-1514.3413	-1519.6548	-1520.2763	-1521.5215	-1522.3684	-1525.3731	-1530.2620	-1530.7435	-1531.0389	-1533.2449	-1535.1904	-1536.9783	-1538.2826	-1540.8365	-1541.3595	-1542.1955	-1542.2174	-1545.2658	-1549.0474	-1550.9404	-1551.2095	-1552.0411	-1555.5163	-1556.3611	-1557.3590	-1558.2650	-1559.9413	-1561.4688	-1563.2042	-1565.2263	-1567.8284	-1569.0254	-1570.3822	-1571.2664	-1573.5248	-1573.7064	-1575.3915	-1577.5712	-1579.6108	-1580.0353	-1580.9129	-1582.4513	-1583.6922	-1587.1433	-1588.1106	-1590.7498	-1591.6514	-1592.0541	-1594.2294	-1594.0631	-1595.7788	-1598.7704	-1599.2321	-1600.3591	-1603.7381	-1604.2786	-1606.1409	-1606.7865	-1608.8152	-1609.9094	-1610.7454	-1611.4369	-1613.3671	-1613.7982	-1617.1465	-1618.7221	-1620.7880	-1621.0397	-1622.7751	-1623.9218	-1626.5698	-1625.6922	-1624.6199	-1628.5766	-1630.4586	-1631.5112	-1633.1788	-1635.2096	-1637.0895	-1638.9518	-1637.5556	-1639.2079	-1641.0374	-1642.0966	-1644.2806	-1642.5605	-1646.3859	-1647.4013	-1649.7035	-1651.3601	-1651.7738	-1652.5003	-1654.3561	-1655.3146	-1655.8945	-1656.2294	-1658.8270	-1660.6018	-1661.5735	-1663.2586
-1432.2999	-1450.5228	-1456.4578	-1461.3160	-1465.6053	-1468.2840	-1471.8555	-1474.8317	-1475.6786	-1478.7183	-1480.9658	-1483.5700	-1485.2945	-1487.4829	-1489.0651	-1491.2032	-1494.2101	-1495.8361	-1497.3198	-1499.4404	-1501.6441	-1503.8763	-1506.7979	-1507.3756	-1508.4129	-1511.8903	-1512.2973	-1514.9935	-1512.7722	-1520.5039	-1520.0465	-1521.1495	-1521.8607	-1524.5459	-1528.6689	-1530.1592	-1531.3125	-1532.7087	-1534.1837	-1535.8316	-1537.2890	-1540.6154	-1541.8694	-1542.0182	-1541.9241	-1544.6180	-1547.4695	-1550.8003	-1550.6187	-1552.2162	-1554.5950	-1554.7416	-1556.4180	-1558.2322	-1559.5977	-1560.5409	-1562.2982	-1563.8301	-1566.6554	-1567.4345	-1569.8286	-1571.2007	-1573.7218	-1573.0893	-1575.5535	-1577.3151	-1578.9630	-1579.2650	-1581.1427	-1582.3113	-1583.4777	-1587.1543	-1588.6227	-1589.3492	-1591.0146	-1592.1132	-1592.9645	-1593.8617	-1595.7197	-1598.2517	-1599.1862	-1600.5298	-1601.3264	-1604.2786	-1604.9636	-1605.9593	-1608.2856	-1610.1807	-1609.8328	-1610.5440	-1613.5553	-1613.0870	-1615.9297	-1618.1291	-1619.7179	-1620.5648	-1622.6394	-1623.1843	-1625.2108	-1625.6244	-1624.1669	-1628.4912	-1630.1588	-1630.6665	-1632.6645	-1635.8443	-1636.5227	-1639.9454	-1637.9101	-1639.0284	-1640.8404	-1641.7705	-1642.7837	-1642.9282	-1645.0663	-1645.8891	-1649.2833	-1650.6008	-1650.7715	-1652.7629	-1653.5245	-1654.5946	-1656.3344	-1656.4001	-1658.2427	-1660.0219	-1660.8929	-1662.1797
-1432.0460	-1450.3280	-1456.3680	-1460.0511	-1464.4914	-1467.5202	-1470.8160	-1474.9521	-1475.6896	-1478.4645	-1480.7579	-1482.8982	-1485.0122	-1487.5726	-1488.2992	-1490.0609	-1493.7199	-1494.6937	-1496.9194	-1499.2544	-1501.6967	-1502.4320	-1504.9815	-1506.4849	-1509.2270	-1511.9997	-1513.4791	-1514.3129	-1512.9167	-1520.3266	-1519.3047	-1521.8191	-1521.5915	-1523.9310	-1527.9511	-1530.1045	-1530.8770	-1531.8858	-1533.4046	-1534.6542	-1536.9630	-1539.5431	-1541.1407	-1540.5804	-1541.7293	-1545.1236	-1546.4322	-1549.4304	-1550.6931	-1552.0871	-1553.7656	-1554.5775	-1555.8424	-1557.7026	-1558.6217	-1560.5716	-1561.5279	-1563.9439	-1565.5568	-1567.4892	-1569.3121	-1570.8243	-1571.0891	-1573.2622	-1574.9166	-1577.5931	-1577.8710	-1578.3743	-1580.8407	-1581.1164	-1584.1233	-1586.8698	-1587.2790	-1589.2617	-1590.8330	-1590.2158	-1592.9098	-1593.2949	-1595.5249	-1596.6542	-1599.6348	-1599.5976	-1600.5955	-1603.9416	-1602.3222	-1605.7142	-1607.5612	-1608.8152	-1609.4389	-1610.8789	-1611.9993	-1612.8769	-1614.6670	-1617.8446	-1619.3415	-1619.8929	-1621.9785	-1622.8604	-1624.5499	-1625.1276	-1624.1800	-1628.1958	-1629.6226	-1630.9554	-1631.3537	-1634.9799	-1634.9098	-1640.5165	-1637.4287	-1638.2121	-1639.9497	-1640.9608	-1643.0135	-1643.4578	-1644.3375	-1645.4974	-1648.1979	-1649.6116	-1650.2441	-1652.3209	-1652.6229	-1654.6931	-1655.0892	-1655.9164	-1657.2010	-1659.7855	-1659.6127	-1661.4093
-1432.9039	-1450.1661	-1456.4993	-1460.0249	-1463.4476	-1466.7871	-1470.3476	-1473.1597	-1474.9871	-1477.3834	-1479.8300	-1482.5371	-1484.7780	-1486.3537	-1488.3342	-1489.5926	-1492.7132	-1493.7374	-1496.2825	-1497.8866	-1500.0094	-1502.9178	-1505.0099	-1506.3843	-1509.1417	-1511.1506	-1512.1179	-1514.9585	-1513.5360	-1518.7291	-1518.8320	-1520.4820	-1521.0685	-1523.9025	-1527.0932	-1529.7412	-1529.5442	-1531.8421	-1532.6956	-1534.3675	-1536.3655	-1539.5519	-1540.9284	-1539.8976	-1542.3465	-1544.4867	-1546.3228	-1548.3887	-1551.2424	-1551.3824	-1553.2885	-1554.5053	-1555.0086	-1557.0986	-1557.7989	-1560.4862	-1560.7160	-1563.0948	-1564.7274	-1567.1784	-1568.7366	-1569.7498	-1570.8724	-1572.9339	-1574.2229	-1576.7637	-1577.0700	-1577.7222	-1580.1185	-1581.9261	-1583.7294	-1586.1235	-1586.8610	-1588.9728	-1589.5002	-1590.3143	-1592.6406	-1592.9929	-1594.6649	-1596.6760	-1598.7266	-1598.4815	-1602.3025	-1603.5520	-1602.6767	-1604.8870	-1607.8435	-1607.9223	-1609.4389	-1610.9883	-1611.7126	-1612.5114	-1614.6998	-1618.2823	-1618.7112	-1619.2517	-1621.8034	-1621.7334	-1624.1844	-1624.4689	-1625.2633	-1627.6137	-1629.2637	-1629.8546	-1631.8636	-1632.6054	-1634.4196	-1638.7199	-1637.3215	-1638.1356	-1639.1838	-1640.0263	-1642.5365	-1642.7006	-1643.9983	-1644.9196	-1647.6770	-1648.7909	-1649.5438	-1650.7715	-1651.7934	-1653.8112	-1654.7172	-1655.8179	-1656.8334	-1659.1881	-1658.6651	-1661.7288
-1432.6828	-1449.1725	-1456.8167	-1458.7118	-1462.7604	-1467.2860	-1469.4482	-1472.6936	-1475.0374	-1476.2301	-1479.0269	-1482.7341	-1484.1675	-1485.5046	-1488.3145	-1488.3167	-1490.8027	-1494.2254	-1495.8864	-1497.6175	-1500.6922	-1501.7339	-1504.5832	-1507.2290	-1508.3451	-1511.2425	-1511.0587	-1515.8448	-1514.7396	-1517.7137	-1519.1427	-1518.8473	-1520.4776	-1524.4299	-1526.0625	-1527.7913	-1529.5924	-1530.9142	-1532.1747	-1534.0546	-1535.2845	-1539.0617	-1539.5913	-1539.7816	-1543.0314	-1543.6004	-1546.1193	-1547.5505	-1550.1657	-1550.9732	-1553.3082	-1553.5336	-1554.4287	-1556.8535	-1557.5953	-1559.6218	-1560.5059	-1562.7863	-1564.2919	-1567.5373	-1568.6425	-1569.1152	-1570.6755	-1572.4612	-1573.9866	-1577.0131	-1576.4442	-1577.6368	-1580.2323	-1581.3922	-1583.4712	-1586.0535	-1587.2724	-1588.3623	-1588.5373	-1590.5244	-1591.3232	-1592.1110	-1593.7611	-1595.9561	-1598.8820	-1598.7397	-1601.8823	-1603.1275	-1602.8539	-1604.3246	-1606.7865	-1607.5196	-1609.1172	-1609.9510	-1612.0475	-1611.0123	-1613.5115	-1616.3171	-1618.3173	-1618.4464	-1620.8777	-1621.0506	-1623.5345	-1624.4842	-1625.7272	-1627.1366	-1628.5437	-1629.6051	-1632.0474	-1632.7652	-1634.9055	-1637.3127	-1637.7701	-1637.3981	-1638.5995	-1640.0504	-1640.8186	-1642.2892	-1644.2390	-1644.9065	-1647.1693	-1647.4954	-1649.1258	-1650.2550	-1651.7716	-1652.4412	-1654.7587	-1655.8442	-1657.1310	-1658.0479	-1658.8073	-1660.3874
-1433.1336	-1449.8378	-1456.1011	-1456.8495	-1462.4715	-1466.4172	-1468.2402	-1472.3281	-1474.5997	-1476.4008	-1478.2784	-1482.1848	-1484.4760	-1485.4980	-1487.3757	-1487.6514	-1490.8815	-1493.1925	-1495.2759	-1497.9195	-1499.2084	-1502.3182	-1503.4408	-1505.9772	-1507.7411	-1510.4700	-1511.0193	-1518.7816	-1515.0941	-1516.7355	-1517.5036	-1518.6875	-1521.4121	-1523.6859	-1525.9202	-1527.5615	-1528.5726	-1530.3955	-1531.7611	-1533.7679	-1535.1072	-1537.6086	-1538.9916	-1539.2717	-1542.1232	-1543.4057	-1545.7867	-1546.9203	-1549.0890	-1550.8353	-1552.8684	-1552.4832	-1553.5971	-1555.9518	-1556.8710	-1559.7422	-1560.6766	-1562.6593	-1564.9200	-1566.8392	-1568.1413	-1568.4543	-1570.1109	-1572.2118	-1573.4810	-1576.3544	-1575.9561	-1577.1598	-1579.1512	-1581.1120	-1583.1779	-1585.6902	-1586.4583	-1587.7845	-1588.1193	-1590.2246	-1590.6667	-1592.7632	-1593.6932	-1594.5314	-1598.3611	-1598.4421	-1599.1730	-1602.6329	-1602.4578	-1603.8912	-1606.1760	-1606.9222	-1608.1805	-1609.8634	-1610.8548	-1610.6578	-1612.7631	-1615.3170	-1618.3829	-1619.2758	-1620.3831	-1620.3219	-1623.1165	-1623.2806	-1625.1889	-1626.3947	-1628.0864	-1628.8173	-1631.5375	-1632.6601	-1633.7543	-1635.1177	-1637.2668	-1636.7744	-1638.3172	-1639.8644	-1639.4026	-1643.0595	-1643.3287	-1644.4688	-1644.9350	-1648.2154	-1647.9550	-1649.3665	-1651.8000	-1652.3778	-1653.8724	-1654.9229	-1655.9777	-1657.2207	-1658.0392	-1658.8752
-1432.6128	-1450.3390	-1456.3659	-1459.0248	-1463.1084	-1465.5616	-1468.5203	-1471.3215	-1474.1839	-1476.2082	-1477.8495	-1481.9003	-1484.0405	-1484.5351	-1487.1306	-1486.9030	-1491.0238	-1492.5382	-1494.6981	-1496.6896	-1497.6831	-1501.7930	-1502.9025	-1504.8108	-1507.5572	-1510.1702	-1509.0804	-1516.7114	-1516.0855	-1515.4071	-1516.0767	-1517.9435	-1521.1954	-1523.4823	-1525.3709	-1527.0495	-1528.2356	-1530.5947	-1531.8727	-1533.2908	-1534.8315	-1536.6566	-1538.6656	-1537.9346	-1541.9307	-1542.8082	-1545.4037	-1545.8611	-1548.9883	-1551.1023	-1552.2775	-1552.6802	-1553.3214	-1555.8293	-1556.1554	-1559.0353	-1559.7487	-1561.9568	-1563.2458	-1565.3511	-1567.0712	-1568.7190	-1570.1700	-1573.0302	-1573.7677	-1574.6190	-1574.8729	-1576.0962	-1578.3021	-1579.8493	-1583.8344	-1583.9110	-1585.8215	-1587.2068	-1586.9048	-1588.7627	-1590.7192	-1592.5968	-1593.1593	-1594.6408	-1596.7745	-1598.1488	-1599.7092	-1602.5870	-1601.9173	-1603.7030	-1605.7076	-1606.5896	-1608.2900	-1609.1216	-1610.7366	-1611.0977	-1612.6383	-1614.8092	-1616.8095	-1618.8709	-1619.3546	-1620.0593	-1622.9873	-1622.5540	-1623.9809	-1626.1168	-1627.7318	-1627.8106	-1630.1566	-1631.7104	-1632.6798	-1634.1964	-1636.1704	-1637.2077	-1637.8073	-1639.1838	-1639.0613	-1643.5387	-1642.4686	-1644.1165	-1645.6834	-1647.5414	-1647.7886	-1649.1630	-1650.2025	-1652.3252	-1652.6819	-1655.1067	-1655.8573	-1657.4527	-1656.0937	-1659.9256
-1433.0746	-1448.3541	-1454.8274	-1457.3660	-1461.2613	-1466.2619	-1467.8113	-1470.9648	-1472.9978	-1475.9237	-1476.3658	-1482.1279	-1484.1149	-1483.9552	-1486.9752	-1486.4981	-1489.9427	-1492.0326	-1493.6083	-1495.5232	-1498.4097	-1500.8060	-1501.6354	-1505.1566	-1507.7608	-1509.1307	-1507.2509	-1511.6583	-1516.0702	-1514.0371	-1515.6544	-1517.5955	-1518.7510	-1523.2044	-1524.3314	-1525.5657	-1527.5659	-1530.0301	-1531.1987	-1532.9604	-1534.5667	-1535.7418	-1536.3218	-1537.6042	-1542.2261	-1542.4581	-1545.1061	-1545.3730	-1548.7257	-1549.4085	-1551.7348	-1552.3410	-1552.7611	-1556.3830	-1556.4092	-1558.3044	-1559.8363	-1562.1888	-1563.0554	-1565.0141	-1566.5853	-1568.9029	-1570.6383	-1572.4087	-1572.2599	-1574.0829	-1574.3739	-1575.3215	-1578.0789	-1580.2629	-1581.9852	-1582.3835	-1584.8302	-1587.1017	-1586.1366	-1588.3579	-1590.1239	-1591.8375	-1593.0827	-1594.1244	-1595.3280	-1597.5930	-1599.9346	-1601.2214	-1601.2827	-1603.5520	-1604.8060	-1605.5916	-1607.6137	-1608.4782	-1610.1961	-1610.2245	-1612.0672	-1614.2009	-1616.8488	-1617.5382	-1618.3873	-1619.8054	-1622.6022	-1622.1579	-1623.2631	-1625.9330	-1626.6814	-1627.4386	-1628.7144	-1630.5308	-1632.6383	-1631.5966	-1635.5576	-1636.4023	-1636.7919	-1637.9058	-1638.9803	-1643.3549	-1642.2388	-1644.6942	-1645.7884	-1646.6529	-1646.9855	-1648.6027	-1650.4651	-1652.4806	-1652.4784	-1654.1591	-1655.5772	-1656.7743	-1655.9186	-1658.2668
-1432.6828	-1448.7589	-1454.1074	-1456.5891	-1461.2964	-1465.5003	-1467.6012	-1471.0239	-1472.8862	-1474.8952	-1475.8646	-1481.5064	-1483.0973	-1484.1981	-1485.8547	-1486.7936	-1489.6166	-1490.5226	-1492.6804	-1496.6983	-1498.1120	-1500.3202	-1501.3071	-1504.9618	-1506.6075	-1507.9533	-1508.7652	-1507.8067	-1515.6347	-1512.7372	-1514.3216	-1517.8515	-1518.0419	-1522.3597	-1524.0207	-1524.8720	-1525.9049	-1529.8353	-1530.6778	-1532.6868	-1533.8620	-1534.7111	-1535.6718	-1537.5538	-1541.0641	-1541.5368	-1544.4364	-1545.2286	-1548.4697	-1548.7760	-1551.6429	-1550.8266	-1551.9952	-1555.8577	-1555.4901	-1558.7092	-1559.9260	-1561.2478	-1562.9876	-1564.8543	-1566.2002	-1568.5527	-1570.6273	-1571.3802	-1571.5421	-1574.6606	-1573.5161	-1574.3520	-1576.3522	-1580.6875	-1581.4337	-1582.9131	-1584.3947	-1585.9069	-1585.5523	-1588.5702	-1589.4827	-1592.1701	-1592.2226	-1593.2577	-1594.4242	-1596.4134	-1598.5340	-1600.2804	-1602.0727	-1602.9765	-1604.6200	-1605.4341	-1607.1235	-1607.6619	-1609.2988	-1609.7781	-1612.1810	-1613.5006	-1616.8226	-1616.9933	-1618.2560	-1619.1226	-1621.8931	-1620.6633	-1623.0530	-1624.6484	-1626.0074	-1626.4888	-1629.7102	-1631.2464	-1631.4215	-1630.7431	-1634.5509	-1635.4723	-1636.5336	-1637.1683	-1637.8839	-1642.5780	-1642.5605	-1643.1470	-1645.1297	-1646.9089	-1646.5434	-1648.8063	-1650.7977	-1651.5965	-1651.9685	-1653.7805	-1654.6493	-1655.7085	-1657.1594	-1658.2011
-1432.2233	-1447.8179	-1454.8493	-1457.4054	-1462.0667	-1464.0494	-1467.5924	-1470.1288	-1472.7615	-1474.7682	-1476.2892	-1479.8694	-1482.0972	-1483.7604	-1484.7058	-1486.3909	-1489.2337	-1490.4110	-1492.9102	-1495.1161	-1495.7770	-1499.7993	-1500.4427	-1503.5393	-1505.6227	-1507.3056	-1507.5966	-1505.0165	-1515.4530	-1512.2383	-1514.4376	-1517.5561	-1517.8647	-1521.1057	-1523.5567	-1524.4999	-1526.3513	-1529.1613	-1530.2270	-1532.3367	-1532.3170	-1534.0502	-1535.0787	-1537.4597	-1540.7358	-1540.2937	-1543.9199	-1544.6093	-1547.3733	-1548.7126	-1550.9075	-1550.4414	-1551.9273	-1554.0567	-1555.6849	-1557.1992	-1559.6371	-1560.3177	-1562.9176	-1563.5850	-1565.3555	-1567.7036	-1570.3144	-1570.1415	-1572.0389	-1573.3103	-1572.4415	-1574.0916	-1576.5383	-1578.6238	-1581.5432	-1582.2259	-1584.5347	-1585.0162	-1585.5983	-1587.2068	-1588.9684	-1591.4786	-1590.9227	-1592.7413	-1593.5379	-1595.9517	-1598.9301	-1599.1862	-1601.7729	-1602.7423	-1603.7928	-1604.7513	-1606.9047	-1607.4562	-1608.1630	-1610.1983	-1611.8987	-1613.2402	-1615.2032	-1616.0326	-1617.3018	-1618.8863	-1620.9784	-1620.2781	-1621.3154	-1624.0400	-1626.0249	-1626.1190	-1628.8851	-1630.2638	-1630.9225	-1630.9466	-1634.2052	-1635.2775	-1636.0259	-1637.8204	-1637.7963	-1641.3941	-1641.6698	-1642.5846	-1644.4776	-1645.3945	-1646.1101	-1648.6903	-1648.7078	-1651.0647	-1651.2595	-1652.8877	-1654.1460	-1655.5882	-1655.5006	-1658.2033
-1431.4639	-1445.6776	-1453.5909	-1456.9392	-1460.4866	-1463.8940	-1467.4349	-1468.7413	-1471.2186	-1475.0133	-1476.3023	-1479.1254	-1481.8740	-1483.7823	-1483.5591	-1486.6404	-1488.4108	-1489.3912	-1492.6082	-1493.5689	-1495.8514	-1498.2477	-1501.3225	-1502.8062	-1505.0646	-1506.6950	-1506.8963	-1503.3424	-1513.0830	-1511.6737	-1513.7264	-1516.8821	-1516.6282	-1520.7403	-1524.2373	-1523.4364	-1525.5766	-1528.4697	-1529.5552	-1531.6429	-1532.5074	-1532.2973	-1534.5973	-1536.6325	-1539.6657	-1541.1231	-1543.2787	-1544.8544	-1546.9728	-1547.0603	-1549.7214	-1550.4305	-1551.9886	-1553.6606	-1555.8884	-1557.0154	-1558.4335	-1559.7772	-1562.3726	-1562.5258	-1564.9922	-1567.3185	-1569.5594	-1569.3449	-1571.1176	-1571.5771	-1572.7217	-1573.3235	-1575.5163	-1578.6917	-1580.2192	-1580.8275	-1583.5084	-1585.0052	-1585.5698	-1586.1126	-1588.3491	-1591.0715	-1591.0671	-1592.1416	-1592.5728	-1595.1113	-1599.8602	-1598.9279	-1601.4490	-1601.7663	-1602.4688	-1604.3070	-1605.9834	-1606.7537	-1606.9463	-1610.1042	-1611.6886	-1613.5991	-1613.7916	-1615.7218	-1616.8423	-1618.3589	-1620.0024	-1620.1490	-1619.6763	-1623.8321	-1625.0729	-1626.1671	-1627.7406	-1629.2790	-1630.8153	-1630.7365	-1632.4676	-1634.3496	-1635.1462	-1637.1967	-1637.0785	-1640.9849	-1640.2211	-1643.3221	-1644.5717	-1645.2851	-1646.0248	-1647.3488	-1649.1345	-1651.2726	-1650.7693	-1650.8327	-1654.3955	-1654.9951	-1654.6406	-1657.9473
-1430.2778	-1446.8506	-1453.2386	-1457.7161	-1460.0336	-1463.9640	-1466.3275	-1467.7653	-1471.2099	-1473.8294	-1475.7618	-1478.2981	-1481.0796	-1483.3096	-1483.8961	-1486.1699	-1488.4174	-1488.6778	-1491.6715	-1493.5580	-1496.1512	-1497.6984	-1499.9109	-1502.7187	-1504.4059	-1504.4497	-1507.7279	-1501.3356	-1510.7655	-1511.1988	-1513.6104	-1516.2015	-1515.5056	-1520.7906	-1522.4757	-1522.8543	-1524.4387	-1527.4084	-1530.0454	-1531.3059	-1531.7480	-1532.6124	-1534.4769	-1535.7768	-1538.1031	-1540.5257	-1542.9745	-1544.8785	-1545.9114	-1546.1959	-1549.5464	-1549.8790	-1550.9798	-1553.1222	-1554.3915	-1557.1314	-1556.9147	-1560.4884	-1561.6133	-1562.7250	-1564.0906	-1566.3052	-1569.1655	-1568.8153	-1570.5376	-1571.4699	-1572.6297	-1573.2775	-1574.9166	-1577.8097	-1580.1623	-1581.2587	-1583.2348	-1583.6966	-1585.2613	-1586.6334	-1587.5110	-1589.3361	-1590.7126	-1592.0475	-1591.8396	-1595.3674	-1598.4749	-1598.1751	-1601.1251	-1600.9938	-1602.4228	-1604.6791	-1604.9876	-1606.3248	-1606.7909	-1609.3798	-1610.9817	-1613.5815	-1614.0936	-1615.1747	-1616.6037	-1617.7811	-1619.5143	-1619.0570	-1619.6610	-1622.5891	-1624.3201	-1625.5259	-1627.8478	-1629.7955	-1630.7803	-1631.2311	-1631.5331	-1634.1045	-1634.3365	-1635.9493	-1636.9582	-1639.4311	-1639.2516	-1640.8776	-1643.8955	-1645.6177	-1645.6943	-1646.7579	-1648.8500	-1651.2463	-1650.3316	-1650.5986	-1653.1481	-1654.6274	-1655.6910	-1657.3455
-1429.0326	-1444.3799	-1453.4793	-1456.6219	-1460.4538	-1463.4935	-1465.2618	-1467.5552	-1470.4308	-1473.9629	-1475.2387	-1477.6438	-1479.6112	-1482.3839	-1483.3753	-1486.0955	-1488.5924	-1488.9273	-1490.3891	-1493.9716	-1495.5297	-1497.3680	-1499.5564	-1502.2263	-1503.7779	-1503.9092	-1508.2860	-1504.5810	-1509.8485	-1512.0194	-1513.0742	-1516.5801	-1515.5187	-1520.2216	-1522.2612	-1523.2350	-1524.1323	-1526.1675	-1527.8832	-1530.3146	-1531.4525	-1532.4877	-1533.3959	-1536.1292	-1538.1228	-1538.1557	-1542.5456	-1544.4320	-1544.3423	-1546.1915	-1548.9883	-1549.6295	-1551.0454	-1552.2359	-1554.2646	-1554.2142	-1558.0702	-1559.2213	-1561.2806	-1562.5718	-1563.7820	-1566.3249	-1568.4936	-1567.9925	-1569.5616	-1571.7872	-1571.8288	-1572.7151	-1575.5338	-1577.5362	-1579.7180	-1580.9238	-1583.3180	-1583.0532	-1585.3072	-1586.7735	-1586.1870	-1588.0471	-1589.4762	-1591.3626	-1591.7784	-1594.8903	-1597.4529	-1597.4354	-1600.1688	-1599.4400	-1602.4950	-1603.5739	-1604.8257	-1605.1299	-1606.3751	-1609.1872	-1609.8481	-1613.2533	-1614.6604	-1615.0500	-1615.2404	-1617.5426	-1618.7440	-1618.8709	-1618.9125	-1623.0355	-1624.6987	-1623.9437	-1627.7187	-1628.6356	-1629.2944	-1631.6469	-1631.6994	-1633.1372	-1634.6385	-1636.2338	-1636.4155	-1638.4769	-1639.1904	-1640.5209	-1643.2105	-1644.7861	-1645.0225	-1646.6726	-1647.8390	-1649.8939	-1649.9377	-1649.8655	-1652.0210	-1653.9862	-1654.5530	-1656.7765
-1429.4724	-1444.5791	-1451.6608	-1455.3264	-1459.9111	-1462.8217	-1465.0889	-1467.2663	-1469.9165	-1473.9147	-1475.4510	-1476.6568	-1478.7993	-1482.1432	-1482.1913	-1487.4632	-1486.5331	-1487.8396	-1490.5182	-1492.4309	-1493.7440	-1497.6590	-1499.5192	-1501.8345	-1502.7165	-1504.1411	-1507.5638	-1507.1611	-1508.8375	-1511.6408	-1512.1967	-1515.6150	-1517.0068	-1518.5059	-1522.4910	-1522.2503	-1523.8128	-1525.9246	-1527.3821	-1529.7740	-1530.9864	-1532.1003	-1533.6344	-1535.2013	-1536.5319	-1538.9391	-1542.0291	-1542.9942	-1543.9221	-1545.1476	-1547.3098	-1549.2443	-1550.5705	-1550.9995	-1553.3761	-1554.4922	-1556.9060	-1558.2781	-1558.9872	-1561.3397	-1563.5062	-1566.2899	-1567.3491	-1566.9311	-1569.2180	-1570.1875	-1571.7150	-1572.8661	-1574.5731	-1576.5207	-1578.6720	-1580.3330	-1581.8670	-1582.7446	-1584.4800	-1585.5129	-1585.5326	-1587.6466	-1589.6184	-1591.2816	-1591.9206	-1595.0194	-1596.8249	-1597.4507	-1599.2365	-1598.8776	-1601.9917	-1602.1755	-1603.8737	-1604.6156	-1605.2787	-1607.6816	-1610.0429	-1613.1701	-1613.9580	-1614.5751	-1615.8137	-1616.5337	-1617.8752	-1619.1532	-1618.8119	-1622.2849	-1624.1428	-1622.6744	-1626.7098	-1628.0732	-1628.9333	-1632.0561	-1630.9466	-1631.6688	-1634.2927	-1635.6386	-1636.3717	-1637.2011	-1638.5951	-1640.4706	-1643.1230	-1643.5212	-1645.4427	-1645.8891	-1647.3378	-1648.4211	-1649.0470	-1649.7342	-1652.0648	-1652.6382	-1654.6099	-1656.7896
-1429.2273	-1445.0277	-1450.9648	-1455.8560	-1458.7293	-1462.1301	-1464.2420	-1466.6777	-1469.3869	-1472.4463	-1474.6019	-1475.9894	-1478.5826	-1480.0554	-1482.2220	-1486.1020	-1486.2005	-1487.4173	-1490.3826	-1492.6410	-1494.4661	-1497.4446	-1498.6329	-1501.6463	-1502.0271	-1503.3577	-1507.0386	-1508.6274	-1506.7716	-1511.2754	-1511.9078	-1515.1007	-1514.9475	-1517.3613	-1520.6746	-1522.0949	-1523.5918	-1524.9354	-1527.6972	-1529.0497	-1530.8836	-1532.5643	-1532.7218	-1533.8292	-1535.6149	-1537.4729	-1540.7424	-1543.0599	-1543.9484	-1544.1979	-1545.7363	-1548.8417	-1549.5267	-1550.2445	-1552.6933	-1553.3826	-1555.5404	-1558.9631	-1558.5035	-1561.3156	-1563.0139	-1565.0403	-1565.8347	-1566.8808	-1568.9707	-1569.1480	-1571.9360	-1572.0389	-1573.9953	-1576.5755	-1578.4553	-1578.5954	-1581.4863	-1582.3923	-1583.6747	-1584.6529	-1586.0425	-1586.2264	-1588.2485	-1592.5509	-1591.7740	-1595.1551	-1596.3150	-1596.9868	-1598.2036	-1599.6567	-1600.6852	-1602.2543	-1602.4469	-1604.7732	-1605.2721	-1606.3335	-1608.4804	-1612.5399	-1612.2576	-1613.6187	-1615.5774	-1616.6716	-1617.1662	-1618.0196	-1618.8534	-1622.2674	-1622.7094	-1622.6832	-1626.5654	-1627.7668	-1629.3907	-1631.4806	-1630.6643	-1631.4959	-1633.3364	-1634.9011	-1636.4308	-1635.3847	-1638.0524	-1639.3129	-1642.0966	-1642.7356	-1644.6001	-1645.3157	-1646.3574	-1647.3138	-1648.2395	-1649.9355	-1650.4892	-1652.3187	-1654.9448	-1656.9100
-1429.7722	-1444.7432	-1450.1136	-1455.6481	-1457.2084	-1462.3752	-1463.5351	-1465.3515	-1469.2666	-1472.1071	-1473.7156	-1475.6786	-1477.3090	-1479.2282	-1481.9594	-1484.4892	-1486.4806	-1487.6339	-1489.9711	-1491.6300	-1495.1577	-1496.3744	-1498.8671	-1500.5959	-1501.8258	-1502.9266	-1507.6273	-1509.6866	-1507.0386	-1511.4242	-1511.6343	-1515.3808	-1514.5799	-1518.3593	-1520.4404	-1521.8498	-1523.2788	-1524.2373	-1525.9465	-1528.1327	-1530.7632	-1531.7217	-1533.0282	-1532.9144	-1536.4290	-1536.8360	-1540.1230	-1542.8958	-1542.5784	-1544.2088	-1545.7232	-1548.1086	-1549.0080	-1549.7149	-1552.1177	-1552.8333	-1555.9103	-1557.7595	-1558.3241	-1562.0028	-1562.0531	-1563.9724	-1564.7121	-1566.4912	-1568.1413	-1569.6294	-1571.1197	-1570.8856	-1573.2359	-1576.4135	-1576.9168	-1577.6434	-1581.1492	-1581.5825	-1583.3574	-1585.2416	-1585.3029	-1584.9111	-1587.7583	-1590.7980	-1591.7477	-1595.1266	-1594.9559	-1596.8555	-1597.6389	-1598.6653	-1599.8055	-1601.9545	-1602.4447	-1603.5892	-1604.9351	-1606.9463	-1607.7866	-1611.0627	-1611.6120	-1613.6603	-1614.0936	-1616.2536	-1615.8772	-1617.8730	-1618.5164	-1622.3790	-1622.7882	-1623.4907	-1625.7316	-1627.4276	-1628.1170	-1631.3668	-1630.2091	-1631.3055	-1632.6689	-1634.0695	-1635.2490	-1635.4744	-1638.1640	-1639.2429	-1640.7638	-1642.6174	-1643.9152	-1645.2457	-1645.7359	-1646.7579	-1647.6792	-1649.7407	-1649.4387	-1651.7934	-1653.8265	-1655.5334
-1428.1944	-1443.8569	-1449.1813	-1454.6523	-1457.3835	-1461.5655	-1462.7254	-1465.1501	-1468.8157	-1471.4375	-1473.0022	-1475.3394	-1476.7991	-1479.9482	-1480.7514	-1484.0624	-1485.3208	-1487.4807	-1489.0411	-1491.6387	-1493.6017	-1496.1775	-1498.4928	-1499.7249	-1500.6353	-1503.2089	-1506.4696	-1510.2490	-1507.8111	-1511.5051	-1511.2469	-1513.6914	-1516.4750	-1517.2454	-1519.5344	-1521.3968	-1522.6792	-1524.1870	-1525.0514	-1527.5615	-1529.4830	-1530.8179	-1534.1793	-1533.0545	-1535.8228	-1536.7069	-1539.9020	-1541.2829	-1542.2042	-1544.4495	-1545.1827	-1547.0384	-1548.4850	-1548.9817	-1551.9055	-1552.9318	-1555.3325	-1557.6457	-1557.0811	-1561.4404	-1561.2347	-1563.3903	-1563.4231	-1564.9725	-1567.5307	-1569.2727	-1570.0802	-1571.6931	-1574.0850	-1576.1334	-1575.8555	-1578.8055	-1580.6481	-1580.7838	-1583.3267	-1584.0029	-1584.5829	-1584.9089	-1586.9004	-1590.0451	-1590.8133	-1594.3344	-1593.2227	-1595.9561	-1597.0568	-1597.5689	-1599.4466	-1601.3396	-1601.9042	-1602.9283	-1604.0313	-1605.6595	-1608.3403	-1610.8570	-1611.1568	-1612.8637	-1614.2359	-1615.5205	-1615.8969	-1617.0502	-1619.3327	-1621.0900	-1621.5452	-1622.3702	-1624.9175	-1627.4955	-1628.2811	-1630.0603	-1630.1041	-1630.8941	-1632.3713	-1633.5552	-1634.4568	-1634.8901	-1638.2472	-1638.9059	-1640.8339	-1641.5823	-1643.6285	-1644.5958	-1645.3442	-1645.1013	-1647.9725	-1649.5066	-1649.1017	-1651.7234	-1653.7608	-1654.9316
-1427.3606	-1443.6709	-1448.7567	-1454.1468	-1457.0355	-1459.9177	-1462.3052	-1464.6162	-1467.3014	-1470.5730	-1471.6804	-1475.0790	-1477.3834	-1478.6133	-1480.0073	-1483.7013	-1484.2944	-1486.9468	-1487.8878	-1491.8597	-1492.6935	-1496.3088	-1497.9020	-1498.8539	-1500.3661	-1503.1082	-1504.2396	-1511.4942	-1508.4786	-1510.9734	-1510.9755	-1512.3367	-1515.3896	-1515.4662	-1519.1733	-1520.5849	-1522.4582	-1523.7056	-1525.0843	-1527.5090	-1528.7477	-1531.2381	-1533.5381	-1531.6845	-1534.4288	-1536.4246	-1539.1711	-1540.1362	-1542.0182	-1543.7230	-1544.2920	-1546.5417	-1548.2596	-1548.4237	-1551.7282	-1552.2622	-1554.8467	-1556.9147	-1557.0067	-1560.2849	-1561.3003	-1562.7140	-1563.2787	-1565.0272	-1567.5439	-1567.7977	-1569.1917	-1571.0563	-1573.9187	-1576.1487	-1576.1859	-1577.5405	-1578.6720	-1580.8188	-1581.7926	-1583.2282	-1584.0073	-1584.0795	-1586.6531	-1590.6010	-1591.0803	-1593.4372	-1593.9143	-1595.3542	-1596.4528	-1597.6740	-1599.2868	-1600.7093	-1600.9610	-1602.7555	-1604.4208	-1604.1779	-1607.5984	-1609.1938	-1611.0452	-1611.9906	-1613.4568	-1614.7655	-1615.7328	-1616.3127	-1619.3502	-1621.4292	-1621.0243	-1622.1711	-1624.9679	-1626.3334	-1628.2964	-1628.2680	-1629.3425	-1630.8438	-1631.5988	-1632.6426	-1634.8858	-1634.5159	-1637.0523	-1638.5185	-1640.1248	-1641.0374	-1642.2060	-1643.7423	-1645.0772	-1643.8801	-1646.5456	-1647.6245	-1649.1280	-1651.4521	-1653.6448	-1654.6887
-1428.0740	-1443.2791	-1447.8245	-1453.1270	-1456.4534	-1459.1561	-1461.8566	-1463.8130	-1467.8988	-1469.7874	-1471.6191	-1474.8601	-1477.2565	-1477.9217	-1479.6747	-1482.1125	-1484.0668	-1486.5419	-1488.3408	-1490.1966	-1492.7067	-1495.4531	-1497.4074	-1498.2368	-1500.0225	-1501.6420	-1502.9506	-1511.8356	-1509.4415	-1509.5750	-1509.9886	-1512.9451	-1514.4004	-1516.7508	-1517.7487	-1519.6942	-1522.5194	-1523.0928	-1524.1257	-1526.2113	-1527.7716	-1530.4721	-1532.6496	-1531.5707	-1535.2998	-1537.1271	-1539.0595	-1540.6548	-1541.7643	-1543.9462	-1544.6881	-1545.8501	-1547.9422	-1549.0014	-1551.3036	-1552.2140	-1555.6608	-1555.6652	-1556.6478	-1559.7619	-1560.7182	-1561.5367	-1562.7972	-1565.1476	-1566.9399	-1567.0252	-1569.0604	-1568.9182	-1572.7370	-1574.9954	-1576.3347	-1576.7702	-1578.1489	-1581.0705	-1581.4491	-1582.7096	-1583.4121	-1584.0664	-1586.4758	-1588.9925	-1589.6731	-1593.8355	-1593.1286	-1595.2601	-1595.3958	-1597.8031	-1598.9038	-1600.1841	-1600.3241	-1601.5496	-1604.4383	-1604.9964	-1606.3291	-1608.3709	-1610.7629	-1611.4063	-1612.6143	-1614.1002	-1615.3498	-1615.8947	-1618.6193	-1620.4532	-1619.3743	-1622.6832	-1624.7118	-1625.8017	-1627.3642	-1627.1935	-1628.3380	-1630.3754	-1630.2332	-1632.2991	-1633.4458	-1634.7523	-1636.6168	-1638.0984	-1639.5164	-1640.7135	-1641.9806	-1642.8034	-1644.6811	-1645.3026	-1645.8628	-1647.7493	-1648.4627	-1649.7670	-1652.3909	-1654.3911
-1428.0565	-1443.3710	-1447.7720	-1453.1117	-1455.9588	-1459.1014	-1461.1935	-1463.8896	-1467.6581	-1468.9624	-1470.5884	-1474.5209	-1476.5693	-1477.5606	-1479.7556	-1480.9965	-1483.8917	-1485.6840	-1488.3670	-1491.0325	-1492.4200	-1494.5252	-1497.0857	-1497.9982	-1499.0859	-1501.5982	-1502.0446	-1511.0171	-1509.8967	-1508.9622	-1510.0849	-1512.2120	-1514.1553	-1516.3437	-1516.7136	-1518.9304	-1521.7710	-1522.1233	-1523.1563	-1525.2156	-1527.0582	-1528.7871	-1531.4766	-1531.5729	-1533.9058	-1536.3130	-1538.3832	-1540.0311	-1541.7600	-1543.7274	-1544.2154	-1544.8150	-1547.4695	-1548.2508	-1550.3955	-1551.7610	-1553.6978	-1555.7965	-1556.3217	-1559.8844	-1560.0420	-1561.5082	-1562.0772	-1564.5239	-1566.0689	-1566.6401	-1568.4915	-1569.2399	-1572.7282	-1574.8554	-1575.3149	-1576.9847	-1579.0090	-1580.0528	-1581.0092	-1581.5191	-1583.2961	-1583.8519	-1584.9221	-1588.1872	-1589.8635	-1592.3671	-1591.8003	-1594.0149	-1595.7241	-1597.3851	-1598.0591	-1599.9105	-1599.7595	-1601.1360	-1602.7576	-1603.9569	-1605.9856	-1608.6598	-1609.2200	-1610.4893	-1612.1197	-1614.0805	-1614.6364	-1614.3212	-1618.1006	-1620.6567	-1619.2211	-1621.8756	-1623.8912	-1625.4449	-1626.5479	-1626.1321	-1628.4277	-1630.0078	-1629.3359	-1631.8789	-1632.2969	-1634.2708	-1636.3192	-1637.2952	-1639.3654	-1640.6238	-1641.0133	-1642.8713	-1644.2609	-1644.1778	-1645.5784	-1648.2066	-1646.9702	-1650.7014	-1652.2355	-1653.3713
-1427.4241	-1443.4214	-1448.2403	-1452.5055	-1456.5891	-1457.9415	-1460.7383	-1464.5002	-1465.9905	-1468.7742	-1469.7371	-1474.3699	-1475.8187	-1476.6481	-1478.6417	-1480.8630	-1483.2549	-1485.0713	-1488.2664	-1491.2667	-1492.0283	-1493.6849	-1497.0397	-1495.9937	-1499.1253	-1500.9920	-1501.0073	-1507.5813	-1509.4152	-1508.1240	-1509.4393	-1511.5708	-1512.4505	-1516.0045	-1516.8646	-1518.5015	-1520.6483	-1522.7076	-1522.9199	-1525.6204	-1526.8591	-1528.3319	-1529.9710	-1529.9207	-1533.6322	-1535.8075	-1537.9543	-1538.5496	-1541.2326	-1543.2831	-1543.7974	-1544.7056	-1546.9640	-1547.6446	-1549.1502	-1550.8069	-1553.1266	-1555.5535	-1556.9388	-1558.0571	-1559.3614	-1561.2369	-1561.5432	-1564.1102	-1565.0403	-1566.1805	-1566.2440	-1569.3384	-1572.3277	-1574.1704	-1574.6300	-1575.9386	-1577.7616	-1579.0134	-1580.0572	-1580.4840	-1583.2282	-1583.2326	-1584.7076	-1588.0515	-1589.2223	-1591.4129	-1591.6580	-1593.7370	-1595.0938	-1596.3193	-1597.9585	-1599.2037	-1599.8755	-1600.9741	-1603.2807	-1603.7709	-1605.8171	-1607.6028	-1608.6248	-1609.9685	-1611.5398	-1613.4284	-1613.5312	-1613.9776	-1616.9057	-1620.1358	-1620.4685	-1621.5058	-1623.2872	-1624.4186	-1625.7207	-1626.0249	-1627.8303	-1628.7297	-1628.8282	-1631.0407	-1631.9730	-1634.9974	-1634.9799	-1636.8444	-1638.7943	-1639.7134	-1639.7353	-1642.1163	-1643.4490	-1643.4972	-1645.2873	-1646.1255	-1647.7952	-1650.2397	-1651.5659	-1652.6207
-1426.6975	-1441.8392	-1447.9120	-1451.2209	-1454.9828	-1457.5082	-1460.6004	-1464.1785	-1465.3690	-1468.1439	-1469.3825	-1473.8644	-1475.3766	-1477.0289	-1478.0268	-1480.5084	-1482.6815	-1484.5483	-1487.3998	-1489.8858	-1490.7874	-1493.9869	-1496.2256	-1495.6873	-1499.6614	-1500.6397	-1499.8278	-1504.2659	-1507.9927	-1506.6315	-1508.6777	-1511.1134	-1512.6738	-1516.3372	-1516.9368	-1518.2258	-1519.8780	-1521.8585	-1522.5413	-1524.8829	-1526.3163	-1528.1065	-1531.0827	-1529.6602	-1533.8204	-1535.4201	-1537.4554	-1538.5124	-1541.3726	-1542.2830	-1543.3947	-1544.5874	-1546.4366	-1546.8240	-1549.5179	-1550.7500	-1553.1354	-1554.8708	-1555.7286	-1556.9213	-1559.6809	-1560.0245	-1560.8998	-1564.2240	-1565.0732	-1565.6071	-1566.1148	-1568.2442	-1571.3014	-1572.4963	-1574.5534	-1575.4681	-1577.1007	-1579.3416	-1579.0768	-1580.4971	-1582.3025	-1582.7249	-1584.3531	-1587.0405	-1588.5789	-1590.0298	-1591.7543	-1593.3431	-1594.7240	-1596.0086	-1597.7593	-1598.3064	-1600.0790	-1600.6852	-1602.2981	-1603.0071	-1606.4429	-1606.9047	-1608.0799	-1609.6205	-1611.3997	-1612.4239	-1613.4853	-1613.6231	-1615.4505	-1618.3610	-1619.8601	-1620.5210	-1623.2806	-1623.7752	-1625.5456	-1625.8782	-1626.5304	-1628.1148	-1629.0996	-1630.0931	-1631.6622	-1634.1920	-1635.7305	-1636.4308	-1638.4222	-1639.4464	-1639.5449	-1641.1709	-1642.7750	-1643.7270	-1645.2348	-1645.0050	-1647.9703	-1648.7691	-1650.6402	-1652.3406
-1426.7894	-1441.1454	-1447.9536	-1450.4331	-1453.7988	-1457.7643	-1460.4254	-1463.3753	-1464.9532	-1467.2094	-1468.9274	-1473.3107	-1474.2780	-1475.8953	-1478.0115	-1479.9767	-1482.1935	-1484.0602	-1486.1852	-1489.5138	-1490.4329	-1493.0765	-1494.1423	-1496.3788	-1498.3068	-1499.7862	-1499.4010	-1500.3617	-1506.9204	-1505.6861	-1508.0584	-1509.7894	-1512.3061	-1515.8273	-1517.0199	-1516.9280	-1519.0880	-1521.3749	-1522.1737	-1524.4846	-1525.5482	-1527.4456	-1528.1984	-1530.2949	-1533.4221	-1534.3019	-1536.7616	-1538.3176	-1540.2434	-1541.0838	-1543.1146	-1543.8696	-1545.5284	-1546.7342	-1548.3493	-1550.4611	-1552.9493	-1554.2558	-1556.0525	-1556.9738	-1558.9128	-1559.6524	-1561.3463	-1563.3290	-1564.7777	-1565.0972	-1566.4278	-1568.9029	-1570.9950	-1572.4897	-1573.8706	-1574.8203	-1577.0153	-1578.7092	-1578.3809	-1580.5649	-1581.8386	-1582.4579	-1583.7097	-1586.1520	-1588.2091	-1589.5593	-1592.2883	-1592.8967	-1594.1484	-1595.4111	-1596.8752	-1598.1926	-1599.4728	-1600.0374	-1601.6722	-1602.6723	-1605.9243	-1606.5458	-1607.6247	-1608.5022	-1611.6339	-1612.0540	-1612.5968	-1613.5137	-1614.5291	-1617.9190	-1619.6697	-1618.9650	-1621.8100	-1623.1230	-1625.2830	-1625.6310	-1625.9351	-1628.0995	-1628.4803	-1629.2265	-1630.9619	-1633.5421	-1634.5947	-1635.6736	-1637.2296	-1638.7811	-1639.1094	-1640.4203	-1642.1097	-1644.3091	-1644.5804	-1645.0159	-1648.6115	-1648.8719	-1650.5657	-1651.7081
-1426.4152	-1441.7998	-1446.6756	-1449.6190	-1455.3876	-1456.7773	-1459.4450	-1462.5634	-1464.7234	-1466.6908	-1469.0805	-1472.1224	-1472.9934	-1475.5101	-1477.3637	-1479.2348	-1482.8391	-1483.1892	-1485.5549	-1488.0497	-1490.7634	-1491.4527	-1494.1116	-1495.2015	-1498.3834	-1499.7402	-1499.1384	-1498.3353	-1505.5942	-1505.2550	-1507.0036	-1508.5398	-1511.4833	-1515.3611	-1516.4882	-1516.4619	-1518.9851	-1520.7884	-1522.1496	-1523.8478	-1525.1390	-1526.3885	-1527.9204	-1528.7542	-1532.4395	-1534.0808	-1536.8404	-1537.0045	-1538.6984	-1541.1516	-1542.2808	-1542.4931	-1545.0864	-1546.5482	-1547.5264	-1550.1307	-1550.9426	-1553.8400	-1556.4267	-1556.3086	-1557.9914	-1559.8341	-1561.2587	-1563.0904	-1564.1737	-1565.4846	-1565.3598	-1567.4520	-1570.6273	-1571.5859	-1573.7502	-1574.3170	-1576.3960	-1576.6105	-1578.2430	-1579.6152	-1581.0530	-1582.2763	-1584.1189	-1585.2372	-1587.0448	-1588.9925	-1590.7542	-1592.4436	-1592.7894	-1594.5292	-1596.4484	-1597.4792	-1599.0045	-1599.9061	-1602.3178	-1603.9591	-1604.7404	-1606.1606	-1607.2942	-1608.5482	-1610.5834	-1611.9949	-1611.4807	-1613.0147	-1613.8288	-1617.8949	-1618.9432	-1619.0460	-1621.0725	-1622.5606	-1624.1866	-1625.7338	-1625.9527	-1626.2240	-1628.0163	-1629.1696	-1629.6182	-1633.9622	-1633.1219	-1635.5226	-1637.1442	-1638.5054	-1637.8314	-1640.5122	-1641.5560	-1643.9064	-1644.2150	-1644.4448	-1647.2831	-1648.6968	-1649.6182	-1651.1216
-1424.7498	-1440.1497	-1445.7061	-1450.1157	-1453.6391	-1455.6152	-1459.5478	-1462.7057	-1463.9531	-1466.6974	-1468.0761	-1471.4134	-1472.7877	-1475.4051	-1476.7225	-1478.6964	-1482.0447	-1481.5808	-1486.5747	-1487.3494	-1489.5772	-1492.0633	-1493.6149	-1494.5931	-1498.3003	-1499.3397	-1499.8628	-1496.9369	-1504.1871	-1504.4256	-1506.5374	-1508.7127	-1510.5597	-1514.8775	-1515.2977	-1516.8471	-1518.2433	-1519.9393	-1521.4515	-1523.3839	-1524.3818	-1525.8305	-1526.9882	-1528.0080	-1531.8268	-1533.7723	-1536.0416	-1536.8732	-1538.6284	-1540.3091	-1541.4908	-1542.3793	-1543.9922	-1545.9967	-1546.2594	-1549.5814	-1550.3889	-1553.6584	-1554.3280	-1555.4594	-1557.1927	-1559.1622	-1560.1864	-1562.5477	-1563.7579	-1564.9265	-1564.6946	-1566.8370	-1569.9577	-1571.8025	-1573.5270	-1573.0390	-1575.3718	-1576.3347	-1577.5559	-1578.0132	-1580.1097	-1581.8846	-1583.6615	-1585.0052	-1586.6312	-1588.4038	-1590.5988	-1591.3976	-1592.4415	-1593.6823	-1596.0064	-1596.5907	-1598.1773	-1599.7026	-1601.0769	-1602.3178	-1604.6090	-1606.2766	-1606.4561	-1608.0383	-1609.9269	-1611.1152	-1611.1458	-1612.1810	-1613.6560	-1617.8205	-1617.3828	-1618.7681	-1620.6698	-1621.9347	-1623.3156	-1626.2393	-1626.8083	-1625.6244	-1627.1979	-1628.0776	-1629.9159	-1631.3799	-1633.2291	-1635.2206	-1637.4462	-1637.8182	-1638.0611	-1640.0220	-1641.5320	-1643.0989	-1643.6504	-1644.5213	-1646.7688	-1648.1147	-1649.2987	-1650.6292
-1424.8111	-1439.1737	-1445.7170	-1450.5337	-1452.6062	-1455.4226	-1458.7468	-1461.7428	-1463.7561	-1466.7149	-1468.1176	-1469.9756	-1472.5120	-1474.8777	-1476.1535	-1478.2456	-1480.5675	-1482.1213	-1485.4324	-1486.1064	-1488.4983	-1491.4833	-1493.1465	-1494.4815	-1497.4774	-1497.9501	-1500.5631	-1498.1668	-1504.0251	-1503.7319	-1505.5548	-1508.9928	-1510.4656	-1514.0656	-1515.4771	-1516.3503	-1517.3373	-1519.7051	-1520.5411	-1522.9724	-1524.1235	-1526.0362	-1525.5963	-1528.7061	-1531.7108	-1533.4943	-1534.9540	-1536.6872	-1538.1972	-1538.8931	-1541.0991	-1542.1473	-1543.9331	-1545.1017	-1545.4343	-1549.3581	-1551.0345	-1552.7371	-1553.6890	-1554.8336	-1557.0789	-1557.6391	-1560.0310	-1562.2348	-1563.3224	-1563.5719	-1564.7143	-1565.3379	-1568.9401	-1571.0388	-1572.1242	-1572.3277	-1575.4134	-1576.4835	-1576.2735	-1578.2233	-1580.1491	-1581.2959	-1583.3158	-1584.3925	-1586.3336	-1588.2835	-1591.5114	-1591.0978	-1591.6449	-1592.8091	-1595.8007	-1595.6365	-1597.3413	-1598.5515	-1599.8908	-1602.0574	-1604.0532	-1605.4188	-1606.0840	-1606.5917	-1610.0276	-1610.3514	-1610.3449	-1612.2532	-1614.1965	-1615.5686	-1617.1202	-1617.9037	-1620.3919	-1620.6808	-1623.3069	-1625.4077	-1625.7207	-1625.6682	-1626.9615	-1627.7384	-1629.5810	-1631.9577	-1632.0146	-1634.6604	-1636.3607	-1637.3040	-1638.4529	-1638.6083	-1639.9454	-1642.5649	-1642.8166	-1644.3966	-1647.7405	-1646.4603	-1649.0317	-1650.1521
-1424.9271	-1439.2218	-1445.8812	-1449.3082	-1452.3720	-1454.7027	-1458.5827	-1460.7755	-1464.3930	-1465.0320	-1468.5072	-1470.1244	-1470.7481	-1474.5253	-1475.5495	-1477.2696	-1480.0795	-1481.9747	-1484.8021	-1485.6687	-1488.3758	-1490.8071	-1492.2252	-1493.9344	-1496.9325	-1497.0069	-1500.5302	-1499.8803	-1503.3971	-1503.6290	-1505.1040	-1507.9862	-1511.3454	-1514.1225	-1514.4639	-1515.3020	-1516.8689	-1519.0180	-1519.7270	-1522.5151	-1523.8478	-1524.3686	-1524.8545	-1528.0517	-1532.0390	-1532.6627	-1534.6017	-1535.7900	-1537.4203	-1538.3548	-1540.5279	-1541.4098	-1542.8410	-1544.8500	-1544.8500	-1547.9160	-1551.4021	-1551.5181	-1553.4352	-1554.6322	-1557.1117	-1557.5581	-1560.0507	-1560.3396	-1562.3551	-1563.3443	-1564.1562	-1564.5436	-1569.1699	-1569.9752	-1571.5946	-1572.4547	-1575.2974	-1575.3390	-1576.6433	-1578.3021	-1579.1096	-1581.5585	-1582.9394	-1584.7951	-1585.1081	-1588.3207	-1589.8285	-1590.3187	-1591.1700	-1592.4086	-1594.5423	-1595.7766	-1596.9277	-1598.1226	-1599.6523	-1601.3811	-1603.0487	-1604.6353	-1605.6288	-1606.7362	-1608.5569	-1609.9488	-1609.6315	-1611.0517	-1613.9973	-1615.1309	-1616.6169	-1617.4988	-1619.1182	-1620.5166	-1622.0923	-1624.1932	-1624.6768	-1624.5696	-1627.5743	-1627.8828	-1628.8260	-1630.7453	-1632.1721	-1634.3627	-1635.0149	-1637.4922	-1637.9189	-1638.4025	-1639.7287	-1641.5670	-1642.3001	-1644.8978	-1645.7469	-1644.7796	-1648.1913	-1649.3840
-1423.5462	-1438.3946	-1444.2508	-1448.9493	-1451.8862	-1454.7005	-1458.0925	-1460.1562	-1463.6577	-1464.7519	-1467.7806	-1469.7699	-1470.2732	-1473.7659	-1475.4094	-1477.1602	-1480.3531	-1480.5413	-1485.4105	-1484.8962	-1487.5989	-1490.7677	-1491.2754	-1493.0240	-1495.8580	-1497.9939	-1499.8628	-1500.5828	-1503.3993	-1503.6684	-1505.1544	-1508.0628	-1510.2731	-1513.1289	-1513.1071	-1515.0154	-1516.4378	-1517.5802	-1519.9940	-1521.0051	-1522.9330	-1524.0163	-1524.4540	-1527.3033	-1530.7150	-1531.8311	-1534.5382	-1535.5361	-1536.1620	-1537.7508	-1539.2214	-1540.8693	-1542.6638	-1543.4232	-1544.0644	-1547.8306	-1549.3560	-1550.9141	-1552.6145	-1554.4725	-1555.6980	-1556.5449	-1558.9784	-1559.3745	-1561.8890	-1563.1889	-1563.2765	-1564.3160	-1569.1348	-1569.4478	-1571.0847	-1571.9907	-1573.9822	-1574.7131	-1577.1663	-1577.5209	-1578.3393	-1581.4709	-1582.3726	-1584.9418	-1585.2853	-1588.0012	-1588.2003	-1590.3625	-1591.1065	-1592.5596	-1593.8858	-1595.3696	-1595.7197	-1596.8030	-1599.7398	-1600.1228	-1602.7555	-1604.4274	-1604.2436	-1606.7800	-1607.9332	-1609.2419	-1608.8961	-1610.3930	-1613.5597	-1615.8772	-1616.8029	-1616.8007	-1617.9628	-1620.4444	-1621.7028	-1623.5498	-1623.6701	-1624.3179	-1626.3400	-1627.3598	-1628.2943	-1629.1368	-1631.9117	-1634.5619	-1634.7785	-1636.8028	-1637.4768	-1638.3194	-1639.3348	-1641.7596	-1640.6851	-1644.5936	-1645.6571	-1646.1648	-1647.0643	-1648.8347
-1423.0407	-1437.1253	-1442.9553	-1448.6014	-1451.6126	-1454.5801	-1456.9545	-1459.2808	-1463.0077	-1464.8153	-1467.3320	-1468.4371	-1470.4352	-1473.3523	-1474.5669	-1476.8910	-1478.7708	-1480.2349	-1485.1085	-1484.9159	-1487.2838	-1490.2316	-1490.7896	-1492.4528	-1495.4225	-1496.8274	-1499.5345	-1502.6005	-1502.7799	-1503.7253	-1503.5415	-1507.9730	-1510.1352	-1511.9122	-1512.6212	-1514.0131	-1515.7353	-1517.8756	-1518.8954	-1520.5302	-1523.0994	-1524.8873	-1525.4410	-1527.0385	-1529.9207	-1531.8486	-1532.9210	-1534.8621	-1536.1270	-1536.7288	-1538.6743	-1540.4207	-1541.9394	-1543.5304	-1544.9726	-1546.8612	-1549.2619	-1551.0936	-1551.0498	-1553.9319	-1555.4047	-1556.7331	-1558.0527	-1559.5868	-1561.5826	-1561.9021	-1563.5150	-1564.8171	-1568.1676	-1569.5134	-1570.9884	-1570.8746	-1572.8661	-1574.5993	-1575.8905	-1577.2035	-1578.3962	-1579.9828	-1581.5847	-1583.7775	-1584.7645	-1587.4322	-1588.1565	-1589.1785	-1590.0167	-1592.0563	-1593.2227	-1594.2929	-1595.1463	-1596.3347	-1598.3239	-1600.3942	-1602.4994	-1603.1778	-1604.7207	-1606.3838	-1606.8916	-1608.6686	-1609.1763	-1610.4412	-1614.5488	-1614.0958	-1616.1595	-1616.2514	-1617.8139	-1619.5428	-1621.7268	-1622.3483	-1623.6264	-1624.2610	-1625.7644	-1626.8630	-1628.0688	-1630.3601	-1631.3033	-1634.2030	-1634.4152	-1636.4527	-1637.1814	-1636.8072	-1638.6936	-1641.4182	-1639.9804	-1643.5453	-1645.6856	-1645.1647	-1646.4909	-1648.6137
-1423.4193	-1437.3989	-1442.8108	-1447.8485	-1451.1531	-1454.1774	-1456.7116	-1458.8475	-1462.6488	-1464.3667	-1466.2509	-1468.9843	-1470.1463	-1472.3960	-1473.3436	-1476.1272	-1477.6788	-1479.9657	-1483.3271	-1484.7562	-1487.1744	-1489.8398	-1490.0696	-1492.6848	-1494.6587	-1495.1599	-1498.4797	-1503.6400	-1502.1212	-1502.4517	-1503.9157	-1506.8351	-1509.2533	-1512.0807	-1512.2032	-1512.9867	-1515.3743	-1518.0157	-1517.9653	-1520.0487	-1522.5457	-1523.7493	-1525.7692	-1527.4937	-1530.5137	-1530.9558	-1531.6583	-1534.0064	-1535.9869	-1536.6063	-1538.8012	-1539.0398	-1541.2479	-1543.0774	-1544.8150	-1545.0360	-1548.8482	-1550.4305	-1550.3692	-1553.2163	-1555.3260	-1556.5165	-1557.3065	-1558.2322	-1560.6000	-1561.8781	-1563.1342	-1565.6881	-1566.9596	-1569.3953	-1570.0212	-1570.2728	-1572.9164	-1573.6780	-1575.6716	-1576.5207	-1577.2648	-1579.0987	-1581.6001	-1584.2349	-1584.5282	-1586.3117	-1587.6576	-1588.3163	-1590.4347	-1591.2247	-1592.7391	-1594.0324	-1594.2644	-1596.2318	-1597.5645	-1599.8974	-1601.8757	-1602.4535	-1604.5850	-1605.4253	-1606.1453	-1608.3994	-1608.8108	-1608.4957	-1613.7260	-1614.2140	-1614.6385	-1615.3498	-1617.3522	-1619.2517	-1621.1097	-1620.7048	-1623.1712	-1623.9393	-1625.4471	-1625.6660	-1628.6619	-1628.3227	-1631.5244	-1633.4742	-1633.7565	-1635.6889	-1636.9057	-1636.1069	-1638.2231	-1639.1291	-1639.2670	-1643.0704	-1644.5060	-1643.4009	-1646.1539	-1648.3248
-1423.6381	-1436.9962	-1442.5198	-1447.3036	-1450.4156	-1453.5778	-1456.1558	-1457.9328	-1462.4956	-1464.1479	-1465.4740	-1468.7216	-1469.4044	-1472.1487	-1473.3304	-1476.3242	-1477.1252	-1480.0576	-1482.3992	-1484.9115	-1486.9599	-1488.8769	-1490.3432	-1492.6716	-1493.5011	-1495.4356	-1497.3089	-1502.4604	-1502.1147	-1502.2022	-1503.9420	-1506.7256	-1508.2641	-1511.4723	-1511.1003	-1512.7307	-1516.2978	-1516.7770	-1517.8231	-1520.0049	-1521.8038	-1523.2963	-1525.6270	-1527.0998	-1529.5224	-1530.2402	-1532.2623	-1533.3390	-1535.0809	-1535.9388	-1537.7223	-1538.3307	-1541.6090	-1542.3946	-1544.2482	-1546.3907	-1548.9599	-1549.3450	-1550.5683	-1552.7042	-1554.5906	-1555.7527	-1556.8316	-1556.8491	-1560.3921	-1560.9743	-1562.2216	-1563.6354	-1567.8152	-1569.0517	-1568.8635	-1570.6514	-1572.2468	-1573.0390	-1575.1267	-1576.1203	-1576.5383	-1579.2256	-1581.1317	-1582.6045	-1584.9899	-1585.7318	-1586.0819	-1587.4475	-1589.7453	-1590.5332	-1591.9250	-1593.3628	-1593.2271	-1594.8378	-1597.6324	-1599.2606	-1601.2805	-1602.5563	-1603.5236	-1604.7141	-1606.2504	-1607.5196	-1607.6116	-1608.0799	-1613.6997	-1614.2403	-1615.2601	-1615.0237	-1616.7307	-1618.9278	-1621.1053	-1619.3984	-1622.5540	-1622.9086	-1624.0487	-1625.5237	-1627.9616	-1629.1346	-1630.6665	-1632.5048	-1633.9513	-1634.7151	-1636.3892	-1636.8356	-1638.5535	-1637.8226	-1638.4529	-1643.4600	-1643.5956	-1643.7313	-1645.8541	-1647.4691
-1422.4958	-1435.4140	-1442.0274	-1446.3188	-1450.8817	-1453.4421	-1456.0310	-1458.0816	-1461.1541	-1463.4432	-1465.1720	-1467.5530	-1469.2359	-1471.6016	-1473.2166	-1475.6436	-1477.0289	-1478.9306	-1482.8303	-1483.9727	-1485.6447	-1488.2883	-1490.5664	-1491.9210	-1492.3434	-1495.3262	-1496.9019	-1500.6484	-1500.7119	-1502.5633	-1502.5983	-1505.3973	-1508.5573	-1509.7172	-1511.2841	-1512.3586	-1514.8797	-1516.3197	-1517.0987	-1520.2479	-1521.7907	-1522.3838	-1525.5460	-1527.0210	-1528.9556	-1530.0607	-1531.9034	-1532.3651	-1534.3216	-1535.5252	-1535.8447	-1537.2584	-1541.5521	-1541.3420	-1543.4363	-1546.0011	-1548.5200	-1549.4457	-1550.4939	-1552.6233	-1553.9451	-1556.0831	-1555.9912	-1556.5930	-1559.5168	-1559.2607	-1561.9941	-1562.8103	-1566.6116	-1568.2310	-1569.2027	-1569.9074	-1570.6142	-1572.0892	-1574.9954	-1574.7547	-1576.7024	-1578.5844	-1577.9892	-1582.5805	-1584.2568	-1585.0643	-1584.9899	-1587.2287	-1588.7015	-1589.7891	-1591.7587	-1592.8901	-1593.0717	-1594.9122	-1596.9255	-1598.7594	-1601.4271	-1600.4817	-1603.1187	-1604.4033	-1604.7535	-1606.3992	-1607.1060	-1607.1585	-1612.4151	-1615.0631	-1614.1615	-1615.3848	-1616.5950	-1618.0744	-1619.9258	-1619.3874	-1621.1119	-1622.5781	-1623.9240	-1625.6900	-1627.6815	-1630.0034	-1630.7562	-1631.8526	-1633.0913	-1634.0957	-1635.4154	-1636.9035	-1637.8336	-1637.5250	-1637.7285	-1642.4095	-1641.9084	-1643.7116	-1644.8671	-1647.7624
-1422.0253	-1435.5365	-1441.4102	-1446.0168	-1450.1880	-1452.9279	-1455.0025	-1457.1274	-1460.0621	-1464.0800	-1464.6599	-1467.1022	-1468.8179	-1470.8072	-1472.9934	-1475.2366	-1476.8407	-1478.5608	-1482.4255	-1483.4125	-1485.4346	-1488.3298	-1489.5444	-1491.3980	-1492.4769	-1494.8185	-1495.1227	-1497.7531	-1500.6791	-1501.9943	-1502.5545	-1504.9902	-1507.5266	-1509.9404	-1511.2644	-1512.1026	-1514.6171	-1515.7747	-1516.4444	-1518.9676	-1521.4099	-1521.6025	-1525.7933	-1526.6862	-1528.9556	-1530.1482	-1530.6297	-1532.3038	-1534.3544	-1535.0350	-1535.8731	-1537.5845	-1541.1034	-1541.4536	-1542.9461	-1544.9135	-1547.3339	-1548.5572	-1548.9774	-1552.0696	-1553.8203	-1555.3260	-1554.7307	-1556.3370	-1558.3919	-1558.4860	-1562.2523	-1564.4232	-1565.2198	-1567.8721	-1568.9510	-1569.0998	-1570.7762	-1571.2051	-1574.0238	-1574.1332	-1576.5011	-1576.5667	-1578.9017	-1581.8058	-1583.1691	-1584.1014	-1585.7099	-1586.9551	-1588.4476	-1589.3689	-1590.8658	-1592.5443	-1591.3451	-1594.5051	-1595.6628	-1599.1227	-1600.0747	-1600.3810	-1602.2062	-1603.7643	-1604.6528	-1606.1606	-1606.8565	-1607.3971	-1611.7542	-1614.6057	-1613.0892	-1615.2075	-1615.7218	-1618.1706	-1619.5056	-1619.0176	-1619.9958	-1622.6175	-1623.6658	-1624.9897	-1626.7864	-1628.8851	-1629.9728	-1631.5287	-1631.6972	-1633.7237	-1635.3191	-1636.1113	-1636.6409	-1637.0567	-1636.3629	-1641.7574	-1642.0966	-1642.6612	-1644.4294	-1646.1889
-1421.6401	-1435.3593	-1440.7800	-1445.2618	-1449.6168	-1452.8075	-1453.7945	-1456.4534	-1459.9811	-1462.9574	-1463.6183	-1466.4260	-1467.7456	-1470.2623	-1472.0086	-1475.2300	-1476.2454	-1478.8693	-1481.7887	-1483.4978	-1485.4761	-1487.1875	-1489.0695	-1490.8553	-1492.6892	-1494.1860	-1494.1204	-1494.9301	-1499.6330	-1501.4034	-1502.5633	-1504.2199	-1507.0561	-1509.3233	-1510.5532	-1511.2163	-1514.5908	-1514.8534	-1515.8295	-1518.7225	-1520.0794	-1521.8520	-1523.6749	-1525.7014	-1527.7716	-1529.5727	-1530.0301	-1532.1463	-1534.0108	-1534.8511	-1535.4420	-1537.3416	-1540.0771	-1541.1100	-1544.0119	-1545.5766	-1546.8918	-1547.9707	-1549.5157	-1552.0061	-1552.9822	-1554.1792	-1554.7307	-1555.1618	-1557.2868	-1558.1600	-1561.2806	-1563.3334	-1565.4036	-1567.4366	-1567.7693	-1568.8701	-1569.6404	-1570.3910	-1573.8181	-1574.8926	-1575.4988	-1575.9824	-1579.0790	-1580.8341	-1583.2589	-1583.4230	-1586.2242	-1585.7559	-1588.3863	-1587.9662	-1590.0167	-1591.8747	-1592.0366	-1593.7064	-1596.5557	-1598.6194	-1599.8843	-1599.7223	-1601.8692	-1602.9218	-1604.2458	-1605.2699	-1606.3817	-1606.8850	-1611.3625	-1612.6077	-1613.4174	-1614.5160	-1615.6211	-1617.3609	-1619.0351	-1618.3435	-1619.8404	-1621.9522	-1622.2345	-1623.0311	-1624.8978	-1628.9114	-1629.8196	-1630.0822	-1631.5681	-1632.3691	-1634.4371	-1635.7589	-1636.1222	-1635.6955	-1636.9538	-1639.6193	-1641.6480	-1642.0681	-1644.7730	-1645.5762
-1420.6750	-1434.1162	-1440.1234	-1444.6688	-1449.8094	-1451.4047	-1453.3283	-1456.6919	-1459.5172	-1461.3883	-1463.1565	-1465.7345	-1467.1197	-1469.6999	-1470.8400	-1474.0876	-1476.1688	-1478.3572	-1481.5961	-1483.3184	-1484.0931	-1486.8548	-1488.6931	-1489.9974	-1491.7394	-1494.3567	-1493.9891	-1492.6651	-1498.9327	-1501.5894	-1501.8980	-1502.6421	-1507.4369	-1508.4939	-1509.7807	-1511.1156	-1513.7395	-1514.6783	-1515.1992	-1518.2520	-1519.0661	-1521.9526	-1521.5828	-1525.6270	-1526.3032	-1529.3429	-1529.9425	-1531.0761	-1532.9319	-1534.6542	-1535.2910	-1536.5450	-1539.5978	-1540.0443	-1542.0182	-1545.7232	-1546.6467	-1546.7802	-1549.5989	-1550.9644	-1552.3081	-1553.9385	-1554.4353	-1553.9801	-1556.8950	-1558.4510	-1559.6875	-1562.7228	-1565.3051	-1566.8852	-1567.8306	-1569.1020	-1569.1983	-1569.7104	-1573.2928	-1574.2601	-1574.7284	-1576.1443	-1577.1816	-1579.7049	-1582.2719	-1583.0860	-1584.7711	-1585.2547	-1588.0274	-1588.0209	-1590.9052	-1590.7695	-1592.1460	-1593.9646	-1595.7679	-1598.0416	-1599.6807	-1598.9367	-1600.4729	-1602.1055	-1603.8650	-1605.1540	-1605.4932	-1605.7558	-1609.5658	-1613.0957	-1612.4042	-1613.3124	-1615.7678	-1616.7766	-1618.4223	-1618.7353	-1618.6237	-1620.7858	-1622.3068	-1622.8101	-1625.8892	-1627.7537	-1629.3009	-1629.2287	-1630.3251	-1632.0583	-1633.7456	-1635.4394	-1635.8202	-1634.7917	-1637.9911	-1638.8402	-1640.6128	-1641.7661	-1643.7795	-1645.0400
-1420.6947	-1433.7289	-1439.3225	-1444.5222	-1449.4155	-1449.5774	-1452.7068	-1455.8581	-1458.7512	-1460.5939	-1462.8042	-1464.4039	-1467.0322	-1468.7151	-1471.0107	-1475.3832	-1476.2498	-1477.3724	-1481.3729	-1482.1301	-1484.0471	-1486.8133	-1487.7105	-1489.1855	-1491.0610	-1493.4004	-1493.1290	-1492.8380	-1498.5519	-1500.3158	-1501.9374	-1503.6006	-1506.6841	-1508.2619	-1509.9951	-1509.7457	-1513.4266	-1513.4857	-1514.6608	-1517.6830	-1518.8604	-1520.6549	-1521.2523	-1525.4979	-1526.0187	-1529.3298	-1529.2204	-1530.8726	-1532.8881	-1534.5754	-1534.5535	-1536.1117	-1539.2630	-1540.7511	-1541.6484	-1544.3401	-1545.6860	-1546.0690	-1548.3121	-1550.1525	-1551.6560	-1553.0391	-1553.5118	-1554.0523	-1556.6915	-1557.1008	-1560.9130	-1562.7009	-1564.6114	-1565.8632	-1567.5898	-1567.9575	-1569.2552	-1570.1437	-1571.9382	-1573.4023	-1574.1660	-1575.6038	-1577.3961	-1578.6435	-1581.5060	-1582.4776	-1584.3487	-1585.5173	-1587.1105	-1587.8152	-1589.8176	-1590.2049	-1590.6492	-1593.9121	-1595.9954	-1596.5710	-1599.0264	-1599.0023	-1600.4839	-1601.7750	-1603.4470	-1604.9723	-1604.4843	-1606.5611	-1609.3579	-1612.4458	-1610.8351	-1612.8265	-1615.2229	-1616.3433	-1617.5863	-1619.4180	-1618.9738	-1620.6742	-1621.2147	-1622.7795	-1625.3859	-1626.9199	-1627.4889	-1629.0208	-1629.6948	-1631.8461	-1632.8418	-1634.9492	-1634.8748	-1634.8048	-1636.9100	-1638.8993	-1640.7332	-1641.4795	-1642.8910	-1644.2806
-1419.8850	-1433.1336	-1439.1233	-1444.1261	-1448.2140	-1449.2338	-1452.3348	-1455.9216	-1458.1888	-1459.4056	-1462.5569	-1464.1150	-1466.6339	-1467.2467	-1470.2776	-1474.0395	-1476.2170	-1477.8867	-1480.8783	-1481.6661	-1483.1958	-1485.2157	-1487.0124	-1488.3014	-1490.4876	-1491.3827	-1493.2910	-1493.9519	-1496.5145	-1498.9896	-1500.7425	-1503.4058	-1506.0122	-1507.3165	-1509.1045	-1508.8134	-1512.1748	-1513.1136	-1515.2189	-1517.0024	-1518.3045	-1519.2302	-1520.3638	-1524.5590	-1525.4322	-1528.9774	-1528.8111	-1530.5706	-1532.7328	-1534.2143	-1534.2559	-1536.2627	-1537.2978	-1539.6088	-1541.1603	-1543.4801	-1545.1061	-1545.9201	-1547.3711	-1550.1788	-1550.3889	-1552.1506	-1553.4198	-1554.5600	-1555.8862	-1556.5952	-1559.6743	-1561.7730	-1564.3291	-1565.2023	-1566.6379	-1566.8370	-1568.9795	-1569.4215	-1571.1701	-1573.4592	-1573.8399	-1575.2055	-1578.6194	-1578.8624	-1581.3725	-1582.4798	-1584.1080	-1584.8892	-1586.2986	-1587.8130	-1588.5176	-1589.0604	-1591.6208	-1593.5203	-1595.8992	-1596.1574	-1598.0263	-1598.4640	-1599.6370	-1601.4621	-1603.7096	-1604.1954	-1603.2019	-1606.0425	-1609.3885	-1611.5069	-1610.5572	-1611.8965	-1614.4985	-1615.9538	-1616.1398	-1619.4684	-1618.6674	-1620.3788	-1621.1622	-1621.6612	-1624.7184	-1626.5939	-1626.3225	-1628.1695	-1629.4366	-1631.3383	-1632.2203	-1633.8769	-1634.1154	-1634.3671	-1637.2186	-1637.9298	-1640.3196	-1640.8514	-1643.5541	-1644.5038
-1419.0315	-1432.7178	-1439.3181	-1443.4126	-1446.7259	-1449.0653	-1451.6236	-1455.5671	-1458.0181	-1457.9940	-1462.1214	-1463.8809	-1465.2836	-1467.3758	-1470.5577	-1472.6520	-1474.8623	-1477.7335	-1480.8498	-1480.8345	-1482.7713	-1484.3622	-1485.7847	-1487.5748	-1489.6232	-1491.0216	-1493.8972	-1494.0044	-1495.6435	-1498.9743	-1500.2173	-1502.6180	-1505.2463	-1507.8658	-1508.1634	-1508.5486	-1511.6561	-1512.9845	-1514.7418	-1516.3503	-1517.4161	-1519.6067	-1520.4864	-1523.7778	-1525.1981	-1527.4127	-1529.0672	-1530.0104	-1531.1462	-1532.9691	-1534.6673	-1535.4639	-1536.5494	-1539.7751	-1539.9195	-1543.6289	-1545.1827	-1545.2636	-1547.0144	-1549.6405	-1549.7805	-1551.4897	-1552.6845	-1553.8794	-1555.6104	-1557.6063	-1558.5561	-1560.4206	-1563.4275	-1564.9987	-1564.8696	-1566.9333	-1569.2946	-1568.4433	-1570.9425	-1572.9317	-1573.2797	-1574.3039	-1577.8666	-1578.5713	-1580.7575	-1581.6963	-1582.8737	-1584.2874	-1586.1169	-1587.2024	-1587.6051	-1588.4607	-1590.9708	-1593.9974	-1594.7481	-1595.9254	-1597.7615	-1597.6433	-1598.7791	-1600.9653	-1603.4689	-1603.6111	-1602.9152	-1605.5938	-1608.7014	-1610.8767	-1610.1414	-1611.2881	-1613.9492	-1614.4066	-1615.9144	-1618.4705	-1618.2538	-1619.1642	-1620.9674	-1622.6722	-1624.4908	-1625.0904	-1626.6289	-1627.9507	-1627.9769	-1630.7672	-1631.3865	-1633.5618	-1634.1417	-1633.4983	-1637.5228	-1639.0525	-1639.6543	-1640.4815	-1642.5846	-1643.4031
-1417.9614	-1432.7923	-1438.7469	-1443.0034	-1446.3823	-1447.6538	-1452.0678	-1455.3679	-1457.6111	-1456.8670	-1461.7690	-1462.7079	-1464.0953	-1467.3539	-1469.3869	-1471.7307	-1474.5888	-1476.9960	-1479.8497	-1480.5281	-1481.8105	-1484.7321	-1485.2267	-1485.9357	-1489.1417	-1490.9778	-1493.5820	-1494.9914	-1496.8209	-1497.8385	-1499.6286	-1502.5852	-1505.6139	-1507.3296	-1507.4653	-1508.4479	-1511.2710	-1511.9625	-1513.9365	-1515.8754	-1516.2518	-1518.4468	-1519.9590	-1523.3357	-1524.3314	-1526.7190	-1528.4085	-1529.2619	-1530.8551	-1532.4417	-1533.7548	-1534.4135	-1536.5143	-1537.8887	-1540.5957	-1542.0423	-1544.2066	-1545.1367	-1546.8568	-1548.6710	-1548.9949	-1550.6143	-1552.1571	-1553.4855	-1555.9081	-1556.6434	-1558.3088	-1561.5498	-1563.4712	-1564.3772	-1564.8499	-1566.7298	-1568.3229	-1568.9860	-1570.0627	-1572.2183	-1572.4656	-1573.7393	-1576.2056	-1577.9213	-1580.3680	-1581.0748	-1582.1472	-1583.7885	-1584.8608	-1586.3095	-1586.9245	-1588.1062	-1590.1020	-1593.4306	-1595.1113	-1594.7918	-1597.7352	-1596.7198	-1598.7791	-1600.3832	-1603.2041	-1603.4339	-1602.7949	-1605.7142	-1608.5941	-1609.6884	-1610.4718	-1611.0824	-1613.1351	-1613.5947	-1615.5402	-1618.0043	-1618.1028	-1618.8863	-1620.1993	-1622.1842	-1623.9349	-1624.6746	-1625.3421	-1627.6924	-1628.0754	-1630.6184	-1630.4564	-1632.9096	-1633.8047	-1634.6691	-1637.9080	-1638.3522	-1639.1685	-1639.8644	-1641.6698	-1642.7334
-1417.3092	-1431.6390	-1438.4821	-1442.4760	-1445.1918	-1447.1679	-1452.0350	-1454.2453	-1458.0006	-1457.2762	-1460.5282	-1461.8435	-1464.7628	-1466.1306	-1468.5969	-1470.8532	-1474.2058	-1475.8646	-1479.2501	-1479.7316	-1481.3969	-1483.5854	-1484.3666	-1486.2246	-1488.7128	-1489.5663	-1492.3762	-1496.4685	-1495.6151	-1496.9237	-1498.8014	-1502.4145	-1505.0077	-1505.8153	-1506.7147	-1508.5989	-1511.1834	-1511.3301	-1513.6038	-1514.8600	-1516.5888	-1518.4118	-1518.7007	-1522.7208	-1523.7975	-1526.2135	-1527.3121	-1528.7148	-1530.8310	-1531.5663	-1533.5140	-1533.8686	-1535.9891	-1537.4488	-1540.3091	-1540.9152	-1543.5873	-1544.2876	-1547.0012	-1548.0911	-1548.0867	-1549.7521	-1551.9864	-1553.7809	-1555.5295	-1555.8402	-1557.5253	-1560.3987	-1562.6637	-1563.3421	-1564.6245	-1565.2351	-1567.2988	-1568.8394	-1568.9751	-1571.5640	-1571.9491	-1573.8399	-1576.3391	-1577.5799	-1579.3876	-1580.8844	-1581.8692	-1583.6681	-1583.9088	-1585.9003	-1586.1082	-1588.1828	-1590.0692	-1591.9906	-1595.0325	-1594.2732	-1596.9977	-1596.7198	-1598.5690	-1599.2299	-1602.0705	-1603.5849	-1602.8561	-1605.7711	-1608.5329	-1609.6315	-1609.6905	-1610.5375	-1612.5574	-1612.5508	-1614.1440	-1616.0851	-1617.5076	-1618.3304	-1619.8404	-1621.0397	-1622.1448	-1624.6243	-1625.1342	-1627.3007	-1627.8325	-1630.0559	-1630.8087	-1631.4324	-1631.9971	-1634.3277	-1636.6102	-1637.6322	-1639.2057	-1639.3742	-1641.3306	-1641.8493
-1418.2415	-1431.4332	-1437.9832	-1442.2900	-1444.0823	-1446.9097	-1451.1005	-1453.5275	-1457.6461	-1457.2259	-1460.0840	-1461.8675	-1464.3470	-1465.2114	-1469.7655	-1469.7808	-1473.0241	-1475.2825	-1478.2019	-1479.2238	-1481.5961	-1482.7362	-1483.7232	-1485.6906	-1488.7653	-1489.2774	-1491.9451	-1497.2082	-1494.6368	-1495.1052	-1499.1362	-1500.9242	-1503.9113	-1505.8547	-1506.3164	-1507.3975	-1510.4963	-1510.6867	-1513.3894	-1514.3742	-1515.8338	-1518.2433	-1520.3726	-1521.8235	-1524.6137	-1525.7802	-1527.0013	-1528.6207	-1529.5946	-1531.0608	-1532.8050	-1533.1004	-1534.4222	-1537.8952	-1539.7641	-1541.0509	-1543.4626	-1543.6902	-1545.4102	-1547.2770	-1549.1306	-1549.3954	-1551.6013	-1552.9012	-1555.4463	-1556.1816	-1556.3742	-1558.8799	-1561.5804	-1562.7491	-1563.7667	-1563.9658	-1567.1303	-1568.6534	-1568.2026	-1570.4260	-1571.7303	-1573.9275	-1576.0677	-1577.5384	-1578.2321	-1580.2629	-1581.1711	-1582.8715	-1584.0686	-1585.6836	-1585.7799	-1587.8480	-1589.0166	-1591.7149	-1593.2534	-1594.2272	-1596.5885	-1596.8774	-1596.9890	-1598.9542	-1601.1601	-1603.2391	-1602.2149	-1605.9024	-1608.2287	-1609.5549	-1608.1740	-1610.3383	-1611.5463	-1612.5924	-1614.1943	-1614.9602	-1616.4418	-1618.9388	-1618.8775	-1622.1098	-1621.2826	-1623.6920	-1625.1451	-1627.1059	-1626.7886	-1630.2901	-1630.1194	-1630.8941	-1631.6382	-1633.5508	-1635.6211	-1638.3413	-1638.9562	-1638.8380	-1640.7617	-1641.7683
-1417.1735	-1431.1794	-1436.9043	-1441.8742	-1444.0495	-1447.4021	-1450.6344	-1453.5406	-1456.5431	-1456.3943	-1459.8892	-1462.4321	-1463.2484	-1465.2836	-1467.6778	-1467.8747	-1473.0678	-1475.0046	-1476.9545	-1479.2786	-1480.5456	-1482.5130	-1483.7407	-1484.6117	-1487.3057	-1488.2401	-1491.2295	-1496.5079	-1494.9848	-1494.3239	-1498.6263	-1501.3750	-1503.6597	-1505.3207	-1505.6730	-1507.1918	-1510.0083	-1510.2402	-1512.3039	-1513.7220	-1515.6938	-1515.6062	-1520.7249	-1521.6047	-1524.3643	-1524.2155	-1526.5702	-1527.8001	-1529.4917	-1531.0192	-1531.8530	-1532.9647	-1535.0175	-1536.5472	-1538.1797	-1540.7227	-1543.0599	-1543.3947	-1545.3512	-1547.4323	-1548.3646	-1549.7127	-1550.8288	-1553.0981	-1554.5469	-1555.4507	-1555.8906	-1558.6239	-1561.7599	-1561.5892	-1563.0357	-1563.6266	-1566.5525	-1567.4957	-1568.4871	-1569.9883	-1571.1854	-1574.3695	-1576.2559	-1577.1138	-1578.0986	-1579.8165	-1580.7072	-1581.7467	-1583.5849	-1585.1409	-1585.6092	-1586.4408	-1588.9291	-1590.9752	-1593.1658	-1593.8683	-1595.5534	-1596.8270	-1595.7263	-1598.0197	-1599.8930	-1602.4097	-1601.6678	-1603.9416	-1607.4387	-1608.6576	-1607.9748	-1609.9094	-1610.6753	-1612.3145	-1613.1701	-1614.5138	-1616.4243	-1618.2188	-1619.3436	-1620.8186	-1621.9500	-1623.7161	-1624.8103	-1626.1321	-1627.2745	-1629.8612	-1629.0339	-1631.2552	-1631.9971	-1633.5596	-1634.9208	-1637.7701	-1638.3369	-1638.4004	-1640.1467	-1641.4204
-1416.7118	-1429.8335	-1435.7838	-1441.2614	-1443.1850	-1446.5596	-1450.2317	-1453.3152	-1455.2607	-1456.8714	-1459.6200	-1461.8894	-1462.8173	-1465.2049	-1466.5901	-1468.8836	-1471.2690	-1472.9343	-1476.6875	-1479.1560	-1479.7841	-1482.5174	-1483.4431	-1485.4280	-1486.5922	-1487.5004	-1490.8093	-1495.3962	-1494.6412	-1494.1773	-1496.7640	-1501.3137	-1503.4124	-1504.4760	-1505.0559	-1506.9817	-1509.0869	-1509.5465	-1511.2972	-1512.6147	-1514.7155	-1516.5276	-1520.5696	-1521.2458	-1523.5020	-1523.6880	-1525.7517	-1526.7015	-1528.7498	-1529.6668	-1530.8026	-1532.3936	-1534.8096	-1536.5603	-1538.4752	-1540.7927	-1542.1977	-1542.0204	-1545.7057	-1546.8787	-1547.9269	-1548.5069	-1549.9950	-1552.5445	-1554.2471	-1552.7830	-1556.7462	-1558.5145	-1560.9677	-1560.6701	-1562.7950	-1563.4887	-1565.6071	-1566.9880	-1567.1237	-1568.9795	-1571.2226	-1573.6802	-1575.0720	-1576.5229	-1578.4269	-1578.5976	-1580.3330	-1581.5694	-1583.0269	-1584.2152	-1584.7010	-1586.1060	-1589.2332	-1590.3318	-1593.2227	-1593.2030	-1595.1617	-1595.5512	-1595.7438	-1596.9518	-1599.4706	-1601.2104	-1601.9282	-1604.0138	-1607.5787	-1607.5437	-1607.6422	-1609.3557	-1610.5506	-1610.8285	-1613.3561	-1613.7085	-1615.3870	-1617.2318	-1619.3787	-1619.8317	-1622.5540	-1623.3769	-1624.6112	-1626.1737	-1627.1081	-1629.0711	-1629.6598	-1629.6598	-1630.6818	-1633.0497	-1633.7018	-1636.2470	-1637.9517	-1638.0239	-1639.8184	-1640.5844
-1417.3158	-1429.1070	-1435.3811	-1440.3948	-1441.9245	-1446.3057	-1449.7437	-1452.1050	-1454.9915	-1457.1274	-1458.7797	-1461.3445	-1462.8326	-1464.4170	-1466.1940	-1469.0543	-1471.5753	-1473.5099	-1475.6086	-1478.2434	-1480.0270	-1481.8543	-1482.6312	-1485.0231	-1486.9468	-1487.0430	-1490.0981	-1492.4441	-1493.8950	-1492.4813	-1496.7312	-1499.6002	-1502.9966	-1503.4605	-1504.6729	-1505.8831	-1507.9468	-1509.3277	-1510.6276	-1512.2711	-1513.0458	-1516.0877	-1519.8408	-1520.9854	-1523.0950	-1523.6771	-1525.0777	-1526.7847	-1527.8307	-1528.8002	-1529.4961	-1532.6715	-1533.6388	-1534.6695	-1538.3307	-1539.4687	-1541.4820	-1542.1145	-1545.4453	-1545.5919	-1547.4477	-1547.5921	-1550.0037	-1551.8551	-1552.4000	-1552.2600	-1556.3479	-1558.1074	-1559.2366	-1560.5234	-1562.7469	-1562.9832	-1564.2131	-1566.8523	-1567.2397	-1568.6578	-1570.7411	-1572.2030	-1573.8224	-1576.5448	-1577.1226	-1578.2168	-1580.3198	-1580.8254	-1583.1648	-1584.1824	-1584.6332	-1585.9550	-1587.9815	-1589.9445	-1591.1503	-1593.0520	-1593.6495	-1594.4876	-1595.3586	-1596.5907	-1598.7572	-1601.1514	-1602.1996	-1603.2019	-1607.6247	-1606.9791	-1607.1498	-1609.0253	-1610.1042	-1610.4018	-1614.1002	-1612.0869	-1615.2447	-1616.7613	-1617.5404	-1620.0746	-1621.4423	-1623.1362	-1623.8386	-1625.5544	-1626.8915	-1627.5983	-1628.7626	-1629.1740	-1630.7278	-1632.9993	-1633.5727	-1636.3411	-1637.4768	-1637.4703	-1639.5077	-1640.2474
-1417.0204	-1429.2930	-1436.2565	-1439.4822	-1442.3797	-1447.1876	-1449.6496	-1451.1552	-1454.4488	-1456.7576	-1458.2873	-1461.0097	-1462.0514	-1464.1128	-1465.8833	-1468.3146	-1471.1770	-1472.8271	-1475.4335	-1477.0858	-1480.0751	-1481.2394	-1482.3204	-1484.7649	-1486.0604	-1487.1153	-1488.7413	-1489.3825	-1493.5361	-1493.5208	-1496.3788	-1499.2763	-1502.8193	-1503.3205	-1504.1061	-1505.3776	-1507.4675	-1508.8375	-1510.0039	-1511.7524	-1514.4354	-1516.3656	-1518.8845	-1521.0882	-1521.0007	-1522.9659	-1524.3402	-1526.2944	-1527.3733	-1528.6492	-1528.9753	-1532.7743	-1533.9823	-1535.0109	-1537.4794	-1538.7115	-1541.0859	-1541.7403	-1545.2177	-1545.9530	-1547.3076	-1547.1413	-1549.5989	-1550.8485	-1550.8134	-1552.3103	-1555.9037	-1557.9214	-1559.6021	-1559.2082	-1561.6483	-1562.5805	-1563.8411	-1565.3161	-1567.5898	-1569.0473	-1570.3363	-1572.0520	-1574.2623	-1575.2974	-1576.4223	-1578.3152	-1579.9303	-1580.0244	-1581.9371	-1584.1474	-1584.1474	-1585.5852	-1587.5876	-1590.3078	-1590.7564	-1593.0039	-1593.5160	-1594.1988	-1594.8553	-1596.5141	-1597.1706	-1600.0943	-1601.2258	-1602.7445	-1606.3423	-1606.7296	-1606.5721	-1609.1194	-1609.2091	-1610.3580	-1613.1307	-1611.6798	-1613.9207	-1616.5381	-1618.6937	-1619.4749	-1620.3153	-1623.1624	-1623.4228	-1624.4820	-1625.0860	-1626.7864	-1627.7078	-1628.6729	-1631.0298	-1632.4763	-1633.1307	-1635.9143	-1636.2688	-1637.5272	-1638.2997	-1639.7419
-1415.8474	-1428.2754	-1434.5014	-1439.4056	-1443.0866	-1446.1919	-1447.9799	-1451.3894	-1453.2342	-1457.4054	-1458.4492	-1460.0205	-1461.5239	-1463.5482	-1465.6973	-1468.3037	-1471.0720	-1472.7264	-1474.5516	-1476.6634	-1479.2610	-1480.4297	-1481.8499	-1484.0690	-1485.6162	-1486.2005	-1488.1241	-1486.3274	-1492.8095	-1493.4201	-1494.6828	-1498.5607	-1501.4866	-1502.9769	-1503.2767	-1505.4214	-1507.1852	-1507.9249	-1509.2686	-1510.7611	-1513.7089	-1516.5494	-1518.2520	-1520.2982	-1520.1144	-1522.1408	-1524.3468	-1525.3206	-1526.3492	-1528.4610	-1528.1874	-1532.2075	-1534.1027	-1534.3850	-1537.3569	-1539.7094	-1540.7599	-1540.8387	-1544.5546	-1545.5109	-1546.2900	-1546.2418	-1548.8854	-1550.1066	-1550.4699	-1551.8135	-1556.4771	-1557.4422	-1558.4751	-1558.9303	-1561.6352	-1562.0466	-1562.8169	-1564.0052	-1566.8523	-1568.3054	-1569.1655	-1571.4371	-1573.2841	-1574.2032	-1576.7265	-1577.3020	-1579.1293	-1579.8099	-1581.3790	-1582.5498	-1583.8016	-1585.5173	-1586.4168	-1590.0583	-1590.9927	-1593.2424	-1592.4612	-1593.8442	-1594.3738	-1595.9714	-1597.1947	-1598.6631	-1600.5977	-1603.7731	-1605.6967	-1605.9112	-1605.9112	-1608.1499	-1609.2310	-1609.9335	-1612.3363	-1612.5793	-1613.2380	-1615.8597	-1618.0372	-1618.8031	-1620.3503	-1622.5584	-1623.1165	-1624.7512	-1625.3027	-1626.2240	-1627.5371	-1628.8676	-1629.7430	-1631.1501	-1632.3516	-1635.0433	-1635.9756	-1637.0063	-1637.1092	-1639.1225
-1415.8496	-1427.6582	-1433.4510	-1438.8082	-1442.6423	-1445.0649	-1447.7676	-1450.7460	-1452.1203	-1456.4337	-1457.3835	-1459.3596	-1460.8477	-1463.6598	-1464.5111	-1469.9187	-1471.4353	-1472.2100	-1475.1928	-1475.6042	-1478.6264	-1480.2480	-1481.9178	-1484.1325	-1485.8000	-1485.8329	-1487.4917	-1484.7824	-1492.3149	-1493.4485	-1495.4663	-1498.7664	-1500.9482	-1501.3137	-1502.1759	-1505.0625	-1506.4324	-1508.5464	-1508.9863	-1510.9449	-1512.0807	-1514.6521	-1517.4554	-1518.9501	-1520.2413	-1522.1386	-1523.6049	-1524.1214	-1526.6402	-1527.3536	-1528.0058	-1530.8967	-1532.9494	-1534.0611	-1537.3153	-1539.1054	-1539.6613	-1540.8124	-1543.9615	-1544.3182	-1546.4804	-1546.6642	-1548.1348	-1549.7302	-1549.0605	-1552.0871	-1556.1400	-1557.0679	-1556.7112	-1559.0200	-1561.3791	-1562.2195	-1561.6308	-1564.2459	-1566.1608	-1567.3622	-1570.0605	-1569.9774	-1572.0608	-1573.9297	-1576.0853	-1575.8183	-1579.0659	-1578.6982	-1580.9129	-1582.0093	-1584.0139	-1584.2065	-1585.7121	-1588.2900	-1589.8832	-1592.2576	-1591.7237	-1592.6165	-1595.4221	-1596.0677	-1597.5755	-1598.6391	-1600.2541	-1602.5716	-1606.0337	-1605.4188	-1605.7120	-1607.2483	-1608.5263	-1608.9618	-1611.9490	-1611.9993	-1613.3386	-1615.3170	-1616.4965	-1618.4595	-1620.1140	-1621.9741	-1622.2170	-1623.8737	-1624.8825	-1624.7600	-1627.0425	-1628.0557	-1629.3710	-1630.2179	-1632.2443	-1633.8922	-1634.8354	-1635.4351	-1636.9801	-1638.8512
-1415.7905	-1427.3934	-1434.0090	-1438.3618	-1441.9092	-1444.7760	-1447.4656	-1450.4768	-1452.0612	-1454.7552	-1456.4031	-1459.4822	-1460.5107	-1462.6182	-1464.8088	-1468.5291	-1470.0194	-1470.9035	-1474.9893	-1474.4925	-1478.2850	-1479.1538	-1480.4034	-1483.9661	-1484.6380	-1485.7869	-1486.4237	-1485.6184	-1491.3849	-1492.7198	-1495.7880	-1498.4031	-1500.8213	-1501.0183	-1501.8849	-1504.9859	-1506.0297	-1507.9161	-1508.7215	-1510.5751	-1512.1573	-1515.2058	-1515.8623	-1519.4097	-1519.4425	-1521.8148	-1522.5282	-1524.5547	-1526.7124	-1526.8000	-1527.5418	-1530.6625	-1532.0522	-1534.0020	-1536.3218	-1537.9018	-1540.1165	-1540.7336	-1543.0555	-1543.8302	-1546.4410	-1546.1653	-1546.8809	-1548.8964	-1548.9971	-1550.7325	-1555.4288	-1556.9410	-1556.8141	-1559.2016	-1560.5935	-1561.8978	-1561.8649	-1563.4450	-1565.6706	-1568.0231	-1567.8918	-1568.9291	-1571.7369	-1573.4154	-1574.9188	-1576.4507	-1578.6851	-1577.6981	-1579.9872	-1581.7970	-1583.2939	-1584.6682	-1586.2045	-1587.7320	-1588.9816	-1591.5114	-1592.8682	-1591.9228	-1594.7196	-1595.9648	-1597.1619	-1597.6586	-1599.9937	-1602.8058	-1605.3947	-1604.6003	-1605.4625	-1606.8719	-1608.2987	-1608.1959	-1611.1809	-1611.6142	-1612.7784	-1614.0192	-1617.7417	-1618.0547	-1619.6894	-1620.7552	-1622.1558	-1623.1274	-1623.4250	-1623.9415	-1626.8280	-1627.2329	-1630.6818	-1629.4804	-1631.8504	-1633.2444	-1634.4131	-1634.5641	-1637.4331	-1637.5928
-1415.2127	-1427.9033	-1433.8405	-1437.6899	-1441.5218	-1444.2617	-1447.0695	-1449.1244	-1451.4069	-1452.5755	-1456.4271	-1457.9459	-1459.4778	-1461.3095	-1463.5920	-1467.4458	-1469.9800	-1471.6716	-1474.1555	-1474.4640	-1477.0704	-1478.3813	-1480.2371	-1483.6182	-1484.4257	-1485.6228	-1486.7870	-1487.5376	-1491.0369	-1492.8795	-1495.4509	-1497.4687	-1499.6199	-1500.2195	-1501.6529	-1504.5898	-1505.9444	-1506.5068	-1508.5377	-1510.3081	-1512.2689	-1512.7744	-1515.5450	-1519.4950	-1518.6328	-1521.3683	-1521.6419	-1523.6508	-1525.6007	-1526.3929	-1527.4871	-1530.3561	-1531.1659	-1533.4703	-1535.9082	-1537.7946	-1539.3155	-1539.3440	-1542.1780	-1543.6902	-1544.6837	-1545.7626	-1546.5176	-1547.4827	-1548.6403	-1551.5969	-1555.3413	-1556.1926	-1556.6784	-1558.4094	-1559.5605	-1561.8234	-1562.1647	-1561.8343	-1565.4889	-1567.1521	-1567.9881	-1569.0407	-1571.1963	-1573.1987	-1574.0391	-1575.9736	-1576.6739	-1577.4749	-1579.2300	-1581.2477	-1581.7773	-1583.6834	-1585.1759	-1588.2922	-1588.8525	-1591.3122	-1591.4873	-1591.5048	-1593.8442	-1594.7940	-1596.8008	-1596.7701	-1598.6981	-1603.3266	-1604.3202	-1604.2348	-1605.2262	-1606.2460	-1608.1039	-1608.0646	-1609.7453	-1611.6295	-1612.0409	-1614.3934	-1616.7329	-1617.9234	-1618.2013	-1619.4049	-1621.3504	-1623.0749	-1623.2149	-1624.7840	-1625.6331	-1627.5239	-1629.6927	-1628.8895	-1631.9467	-1632.6011	-1633.8003	-1634.1176	-1636.5314	-1637.6300
-1414.5212	-1427.1352	-1432.2255	-1437.3091	-1440.6924	-1443.0581	-1446.7500	-1448.6692	-1450.7679	-1452.1006	-1455.9216	-1456.2630	-1459.2589	-1460.5742	-1463.0077	-1468.1745	-1469.6495	-1470.9341	-1474.3678	-1473.5230	-1476.8582	-1477.7882	-1480.5238	-1482.1366	-1483.4278	-1485.7541	-1486.1173	-1488.8923	-1489.9843	-1492.2668	-1495.1621	-1497.3680	-1499.3135	-1499.6505	-1500.9329	-1503.7231	-1504.9443	-1506.7979	-1508.3101	-1509.6275	-1512.3739	-1512.0719	-1515.0438	-1516.8383	-1518.5606	-1521.0904	-1521.1889	-1522.7273	-1524.5612	-1526.1478	-1526.6774	-1528.9621	-1531.7152	-1533.1945	-1535.7856	-1537.7639	-1537.7267	-1539.5519	-1540.9568	-1543.6376	-1543.9024	-1545.8085	-1546.2309	-1547.5768	-1548.5550	-1550.7741	-1553.7853	-1556.1926	-1556.0109	-1556.9016	-1558.9653	-1562.0531	-1561.7774	-1561.7993	-1565.2964	-1566.0864	-1567.5482	-1568.6906	-1570.1218	-1572.2840	-1573.8487	-1574.7197	-1576.1137	-1578.0701	-1577.5427	-1580.5255	-1581.2587	-1583.0313	-1584.1955	-1587.0470	-1587.8808	-1590.0758	-1590.8811	-1590.6492	-1594.3585	-1594.8246	-1596.3850	-1596.9824	-1598.5449	-1602.0420	-1603.1100	-1603.7928	-1604.2304	-1605.6092	-1607.1367	-1607.7450	-1609.7409	-1610.9992	-1611.8483	-1613.4743	-1615.4329	-1616.7635	-1617.5382	-1619.3196	-1619.6588	-1622.9677	-1623.0552	-1624.2479	-1624.9657	-1626.9199	-1628.0820	-1628.3840	-1631.3471	-1631.8220	-1632.5726	-1634.1592	-1636.0653	-1637.5140
-1413.9916	-1426.1263	-1432.3786	-1436.5585	-1439.5369	-1442.5635	-1445.9775	-1447.9864	-1450.6825	-1451.4594	-1454.8821	-1456.5913	-1458.8037	-1460.7668	-1462.8370	-1466.4216	-1468.2402	-1469.9559	-1473.2473	-1472.9278	-1476.6459	-1477.2083	-1478.7927	-1480.8411	-1483.0733	-1484.6642	-1485.3842	-1490.7218	-1489.5882	-1492.1727	-1494.8885	-1496.8296	-1498.4622	-1498.8692	-1499.5455	-1503.4518	-1504.3096	-1506.5243	-1507.5135	-1509.0869	-1511.8597	-1513.0458	-1515.1182	-1516.8449	-1518.6766	-1520.3135	-1521.1714	-1522.6879	-1524.5350	-1525.9837	-1527.0451	-1528.7061	-1530.8223	-1533.9539	-1535.4267	-1536.5494	-1537.7158	-1539.2389	-1539.4775	-1542.7579	-1543.1255	-1544.9091	-1544.4627	-1547.0822	-1547.9663	-1549.5310	-1553.2273	-1555.5951	-1555.3894	-1557.7135	-1557.9936	-1560.3812	-1561.9919	-1561.6614	-1564.9353	-1566.9749	-1566.9880	-1568.3995	-1569.7082	-1572.2818	-1573.6999	-1574.5709	-1576.1684	-1576.6980	-1577.4224	-1579.4926	-1580.6700	-1583.6637	-1584.4756	-1586.3358	-1587.3425	-1589.2245	-1590.9336	-1589.2726	-1593.6451	-1594.3169	-1595.7219	-1596.8314	-1598.9323	-1601.1886	-1602.8080	-1603.3113	-1603.3244	-1605.3991	-1606.7581	-1607.6575	-1608.1630	-1610.2945	-1610.8198	-1612.8791	-1615.3585	-1615.8247	-1617.3631	-1618.4420	-1619.7222	-1621.8691	-1621.6043	-1623.6461	-1624.9022	-1626.0030	-1628.1411	-1628.0667	-1630.8044	-1631.1151	-1632.7170	-1633.0081	-1635.4657	-1636.7590
-1413.6568	-1425.5814	-1432.4574	-1435.5037	-1438.9592	-1442.1105	-1445.4457	-1446.8134	-1450.0238	-1450.0413	-1453.5866	-1456.1295	-1457.3397	-1460.5982	-1462.6794	-1465.8504	-1467.7981	-1471.1573	-1471.6891	-1473.2998	-1475.4729	-1476.5956	-1478.6877	-1480.6069	-1482.8150	-1483.8436	-1485.8416	-1491.1704	-1488.7041	-1491.1573	-1495.3415	-1495.6041	-1498.2258	-1497.8232	-1499.3682	-1502.7953	-1504.9377	-1505.0800	-1506.3821	-1509.9185	-1510.4460	-1512.6803	-1514.0678	-1516.5079	-1518.1142	-1519.8583	-1520.3704	-1522.1780	-1524.5372	-1525.0361	-1526.7168	-1526.7168	-1531.0061	-1533.0457	-1534.6126	-1535.2407	-1537.1337	-1538.6459	-1538.4927	-1541.6484	-1542.1955	-1544.9485	-1545.3402	-1546.8524	-1547.8919	-1550.1635	-1552.6123	-1554.0742	-1555.5382	-1557.2474	-1557.3743	-1559.6087	-1561.8124	-1561.0968	-1563.0729	-1565.2592	-1567.0952	-1567.9444	-1570.0365	-1571.4217	-1572.4744	-1574.8050	-1574.5359	-1575.3915	-1577.8994	-1578.9958	-1580.2432	-1582.5126	-1584.4209	-1586.4146	-1586.9310	-1588.1544	-1590.6710	-1589.0560	-1593.1987	-1592.9732	-1595.5665	-1596.4025	-1598.2429	-1600.5298	-1602.0377	-1602.9086	-1603.2150	-1604.4559	-1606.1234	-1606.9660	-1608.1805	-1609.6993	-1610.9992	-1612.9075	-1614.6801	-1615.4242	-1616.8423	-1617.2843	-1619.6325	-1621.4927	-1620.9806	-1623.2872	-1623.6461	-1626.7908	-1627.7165	-1626.7449	-1630.4914	-1631.4762	-1632.3560	-1631.9795	-1635.0389	-1636.2601
-1413.2694	-1425.7850	-1431.8075	-1434.7990	-1438.0510	-1441.3599	-1444.8263	-1446.8047	-1449.5074	-1450.0391	-1453.4421	-1455.2038	-1457.7402	-1459.1451	-1462.3534	-1464.4871	-1467.9141	-1469.5664	-1471.6585	-1473.2604	-1474.9170	-1475.8384	-1478.1975	-1480.3990	-1480.3640	-1483.7670	-1485.6031	-1491.8028	-1487.6405	-1490.1593	-1494.2320	-1494.9585	-1497.8188	-1497.7663	-1499.2544	-1502.1628	-1504.2396	-1504.7561	-1505.8109	-1508.2794	-1509.8923	-1511.1156	-1513.7023	-1515.8929	-1517.7246	-1518.9851	-1520.2391	-1521.5697	-1523.1016	-1525.3337	-1525.6489	-1526.6665	-1530.9361	-1531.6736	-1534.0064	-1535.4442	-1536.3787	-1537.8690	-1538.0988	-1541.4427	-1541.7447	-1543.9068	-1545.3818	-1546.5504	-1548.0517	-1548.6622	-1550.8003	-1553.4811	-1555.0261	-1555.8971	-1555.8621	-1559.6721	-1560.7488	-1560.5147	-1562.9854	-1563.6572	-1565.0907	-1568.6862	-1569.2749	-1570.6514	-1572.0454	-1574.0544	-1573.7568	-1575.4812	-1576.9081	-1578.5866	-1580.0419	-1582.2128	-1584.1299	-1585.9813	-1587.0930	-1586.7757	-1590.1108	-1589.0232	-1591.4326	-1592.4830	-1595.4505	-1596.7461	-1597.1181	-1599.8164	-1600.2497	-1601.9151	-1603.0684	-1603.3813	-1605.4866	-1606.3751	-1607.0491	-1608.9530	-1611.0911	-1612.7762	-1613.9186	-1614.9427	-1616.1748	-1617.5863	-1618.6521	-1620.9784	-1620.7530	-1622.2345	-1622.5716	-1625.1320	-1626.8762	-1627.4189	-1630.2507	-1630.4564	-1631.9752	-1632.3034	-1634.9252	-1635.9034
-1412.3656	-1424.9096	-1430.7001	-1434.2760	-1437.4536	-1441.0951	-1444.1742	-1446.3057	-1448.6342	-1450.2799	-1453.3677	-1454.7661	-1457.2609	-1458.6352	-1461.7887	-1464.0713	-1465.3668	-1468.8639	-1471.4397	-1472.6783	-1474.7201	-1475.4204	-1477.7204	-1479.4930	-1479.8760	-1482.3073	-1484.9247	-1491.7022	-1487.0671	-1489.0761	-1493.1203	-1495.2824	-1496.7640	-1497.2060	-1498.7095	-1502.2416	-1503.6050	-1504.4672	-1505.6205	-1507.7520	-1509.7325	-1511.4789	-1513.8927	-1515.2933	-1517.5955	-1518.5606	-1519.3747	-1521.9439	-1522.8302	-1525.1521	-1524.9683	-1527.5287	-1529.0234	-1532.2075	-1533.1551	-1535.0897	-1535.2035	-1537.2124	-1538.0747	-1540.2872	-1540.8080	-1542.7535	-1544.5436	-1546.2353	-1547.7672	-1548.1480	-1550.1460	-1553.1485	-1554.4681	-1555.7199	-1555.4179	-1558.5495	-1559.6524	-1560.5650	-1562.6703	-1562.9351	-1566.3249	-1568.3974	-1568.5834	-1570.6273	-1571.7106	-1572.9317	-1572.6319	-1575.3499	-1575.9693	-1577.9826	-1579.2585	-1582.0487	-1583.8476	-1585.1168	-1586.9310	-1586.8741	-1589.5790	-1588.5702	-1590.6535	-1592.3714	-1594.9428	-1595.2383	-1597.0437	-1599.5976	-1600.0287	-1601.6613	-1601.4730	-1603.8322	-1604.9920	-1606.2919	-1606.0906	-1608.6686	-1609.9247	-1612.6537	-1613.3539	-1614.6889	-1615.4001	-1617.5863	-1617.4944	-1620.0374	-1620.0111	-1621.7465	-1622.1886	-1625.0576	-1626.6923	-1628.2483	-1629.9553	-1629.4672	-1631.6688	-1631.7126	-1633.7237	-1635.1243
-1412.1555	-1424.4238	-1430.6564	-1434.3504	-1436.8561	-1440.3182	-1443.2441	-1446.2116	-1448.1549	-1450.4900	-1452.5252	-1455.2979	-1456.5322	-1458.5762	-1461.0928	-1464.3032	-1465.3012	-1468.4153	-1470.5446	-1472.0086	-1474.1161	-1475.1162	-1477.4665	-1478.3966	-1479.6812	-1481.0337	-1484.6839	-1487.9906	-1485.9663	-1488.6165	-1493.6893	-1494.2955	-1496.3854	-1496.2672	-1498.2105	-1501.4034	-1502.6793	-1504.4256	-1505.4848	-1507.2771	-1508.6536	-1511.6321	-1513.0874	-1514.7199	-1516.4028	-1518.1142	-1518.7160	-1520.7293	-1522.0883	-1523.3992	-1524.8173	-1526.7321	-1528.8724	-1531.6451	-1533.2273	-1533.7175	-1534.8665	-1536.8732	-1537.4575	-1539.8342	-1540.3681	-1541.4361	-1543.9353	-1547.0341	-1547.5111	-1547.9773	-1550.3692	-1552.2928	-1554.6738	-1555.4748	-1555.1793	-1557.9083	-1559.6831	-1559.9501	-1561.5914	-1563.2590	-1565.9835	-1566.9771	-1569.4456	-1570.0868	-1571.1832	-1572.3387	-1571.8244	-1574.5556	-1576.0021	-1578.0067	-1578.8339	-1580.6065	-1583.2523	-1584.8499	-1586.0776	-1586.4715	-1589.2420	-1588.0121	-1590.4391	-1591.7477	-1593.8267	-1594.5205	-1597.1706	-1598.4421	-1599.2452	-1600.5824	-1600.2869	-1603.3857	-1603.6746	-1605.8499	-1605.8433	-1606.8106	-1608.8480	-1612.0168	-1612.6712	-1613.7566	-1615.6737	-1617.4638	-1617.8949	-1619.5231	-1619.3436	-1620.8296	-1622.7138	-1623.8277	-1626.2240	-1627.0578	-1629.6708	-1629.6795	-1631.4543	-1631.8110	-1633.7368	-1633.9951
-1411.5318	-1424.2399	-1430.4835	-1434.4730	-1436.8605	-1440.1913	-1441.8304	-1445.8855	-1447.6997	-1449.9998	-1451.4704	-1455.0659	-1456.0989	-1458.0312	-1460.9637	-1463.2594	-1464.9598	-1468.6888	-1469.6977	-1471.2493	-1473.9344	-1474.7026	-1476.3811	-1478.7424	-1478.9087	-1480.8958	-1484.1981	-1484.5811	-1486.3428	-1488.7347	-1492.5951	-1493.5623	-1495.4619	-1496.8012	-1497.8516	-1500.5565	-1502.4736	-1503.2395	-1504.7473	-1506.3033	-1508.3254	-1510.5269	-1512.5818	-1514.9016	-1516.1905	-1517.4423	-1518.5606	-1519.7664	-1520.7424	-1523.2132	-1524.6072	-1526.7650	-1529.0584	-1530.4656	-1532.1266	-1532.9188	-1534.5426	-1536.0023	-1538.1294	-1538.8187	-1539.7970	-1540.6286	-1543.7055	-1546.1565	-1546.8415	-1548.8329	-1549.5704	-1552.2512	-1553.7678	-1554.7351	-1554.8620	-1557.0614	-1558.2562	-1559.3023	-1560.6613	-1563.6332	-1563.9374	-1567.2506	-1569.1983	-1569.1721	-1571.0366	-1571.4546	-1571.4918	-1573.6539	-1575.0983	-1576.7702	-1578.7529	-1580.8275	-1583.2895	-1584.3290	-1586.4124	-1585.8128	-1588.4958	-1587.3775	-1588.8218	-1590.9884	-1594.0456	-1594.1112	-1596.6126	-1598.4815	-1597.9497	-1598.7397	-1600.6830	-1602.2127	-1603.7184	-1604.9089	-1605.3837	-1606.1760	-1609.1609	-1611.1458	-1612.1656	-1613.2577	-1615.1309	-1616.9692	-1617.7308	-1618.5339	-1619.6697	-1620.3766	-1622.7029	-1622.7663	-1626.0577	-1626.7383	-1628.0448	-1628.6422	-1630.6687	-1631.4062	-1633.6252	-1633.2729
-1411.4268	-1423.1742	-1429.2777	-1434.5430	-1436.8189	-1439.0161	-1441.5153	-1445.5617	-1446.9119	-1449.4067	-1451.7505	-1453.8689	-1455.6787	-1458.0728	-1460.8346	-1462.6838	-1463.5417	-1467.2401	-1468.6779	-1470.6518	-1473.6850	-1474.6435	-1476.4139	-1477.7270	-1478.4316	-1480.9396	-1483.1214	-1482.0841	-1485.3208	-1487.8287	-1491.7722	-1493.0787	-1495.6851	-1496.1425	-1497.5934	-1499.7709	-1501.7558	-1502.2131	-1503.9420	-1506.5768	-1506.4455	-1510.1046	-1511.9691	-1514.6980	-1515.2036	-1517.2607	-1517.3767	-1519.4403	-1519.9218	-1522.9681	-1523.5392	-1526.1325	-1528.9950	-1531.1199	-1531.4350	-1532.8663	-1533.2208	-1535.4836	-1539.4512	-1537.3306	-1540.1384	-1539.7291	-1542.7010	-1545.3643	-1546.4716	-1548.6228	-1549.3078	-1551.1811	-1553.2295	-1553.7503	-1555.0174	-1556.0131	-1557.5516	-1559.4183	-1560.2455	-1562.9679	-1564.4079	-1567.0624	-1567.8043	-1568.7956	-1569.9511	-1570.9884	-1570.9709	-1573.6080	-1574.5183	-1576.5317	-1578.7310	-1579.8734	-1581.9787	-1583.4493	-1586.6378	-1585.6880	-1587.8042	-1587.7101	-1588.2835	-1590.1721	-1593.0652	-1593.6495	-1596.4769	-1598.0526	-1597.8644	-1597.8293	-1600.0900	-1602.0595	-1603.2588	-1603.5674	-1605.0424	-1605.2459	-1608.5110	-1610.9270	-1611.8330	-1612.3867	-1615.1331	-1616.3258	-1617.1224	-1617.6848	-1619.9323	-1619.7157	-1621.2301	-1623.3791	-1624.2238	-1626.1737	-1627.4670	-1627.9791	-1629.9618	-1631.1830	-1632.1502	-1632.1327
-1411.3699	-1423.3274	-1428.6846	-1434.2782	-1436.1165	-1438.0488	-1441.6356	-1445.2881	-1446.6055	-1448.7677	-1451.3828	-1453.8076	-1455.8122	-1458.0903	-1460.5435	-1462.9968	-1463.9006	-1465.9424	-1468.6385	-1469.1221	-1472.6652	-1473.6259	-1475.3679	-1477.0880	-1478.0705	-1479.6747	-1482.5984	-1477.6679	-1485.0428	-1486.6951	-1489.8705	-1492.6388	-1494.2189	-1494.4224	-1497.2148	-1498.6767	-1500.0554	-1502.0687	-1504.5044	-1505.3907	-1506.5024	-1510.6517	-1511.6758	-1513.2515	-1514.1356	-1517.0681	-1516.5604	-1519.2828	-1519.9765	-1522.0205	-1522.4954	-1525.8021	-1527.5506	-1529.6121	-1530.9186	-1532.4833	-1532.6321	-1535.3567	-1538.2454	-1536.9170	-1539.7598	-1539.2280	-1541.4908	-1544.5042	-1544.7669	-1547.1282	-1549.3385	-1551.2971	-1553.2798	-1553.3323	-1554.8336	-1555.9146	-1556.9301	-1559.0944	-1559.7247	-1561.6724	-1564.3597	-1566.2177	-1567.0996	-1568.3339	-1569.6141	-1570.7871	-1570.9140	-1573.1572	-1574.3958	-1577.2342	-1577.7813	-1578.9937	-1581.0923	-1584.1693	-1585.3029	-1585.7909	-1587.0908	-1587.4628	-1588.3229	-1589.7169	-1591.4829	-1594.1244	-1596.5272	-1598.5209	-1597.5470	-1597.7921	-1598.7944	-1601.6131	-1602.8693	-1603.7227	-1604.3815	-1604.5915	-1607.4934	-1610.6491	-1611.2487	-1611.6689	-1614.2665	-1616.0960	-1616.6891	-1617.6126	-1618.8206	-1618.9847	-1620.8646	-1622.1864	-1623.9437	-1625.9089	-1626.7908	-1628.1323	-1629.7123	-1630.8087	-1631.8920	-1632.4894
-1410.8884	-1422.8021	-1428.3935	-1433.8252	-1434.9610	-1438.2567	-1441.1761	-1444.8635	-1445.9184	-1448.4547	-1450.5490	-1453.6391	-1454.6545	-1457.1012	-1460.5085	-1460.9681	-1463.4213	-1466.5639	-1468.0804	-1467.9010	-1471.7285	-1472.9015	-1474.4225	-1476.0922	-1477.7510	-1479.1669	-1481.6355	-1477.0792	-1485.2113	-1487.4326	-1489.9602	-1492.1990	-1493.5251	-1495.3349	-1496.9303	-1499.1931	-1499.5236	-1501.1758	-1503.6356	-1504.3118	-1507.3734	-1509.5181	-1510.8552	-1513.1683	-1513.8227	-1516.0921	-1517.1228	-1519.1296	-1519.6001	-1522.0708	-1522.5260	-1525.0361	-1527.2442	-1529.3998	-1530.1242	-1531.7108	-1532.7043	-1534.2209	-1537.5123	-1537.1993	-1540.0640	-1538.9916	-1541.2216	-1545.1148	-1544.9835	-1547.3536	-1549.3297	-1550.5027	-1552.6670	-1552.7130	-1554.6672	-1554.3346	-1556.6565	-1558.1950	-1559.0944	-1562.6374	-1564.0293	-1565.1957	-1567.5964	-1567.8130	-1569.4850	-1570.2794	-1571.4305	-1572.7435	-1573.3869	-1576.5601	-1577.3305	-1579.0068	-1581.2937	-1583.4515	-1583.7797	-1585.0424	-1585.9659	-1586.9792	-1587.8480	-1589.8548	-1591.2050	-1593.0236	-1595.7569	-1598.9126	-1596.5710	-1597.2582	-1598.6106	-1602.0311	-1602.3243	-1603.0575	-1603.5717	-1604.9373	-1606.5939	-1609.7168	-1610.8810	-1612.0628	-1613.6253	-1614.7064	-1616.1442	-1617.0217	-1618.9235	-1618.2626	-1620.9718	-1622.4402	-1624.0181	-1625.0532	-1625.7426	-1627.8062	-1629.1828	-1630.3711	-1631.8088	-1631.2705
-1410.0940	-1422.5811	-1428.4176	-1432.5581	-1434.7093	-1438.0313	-1441.3730	-1444.2967	-1445.3910	-1447.6625	-1450.5162	-1452.6806	-1453.0723	-1456.7532	-1459.3509	-1461.2373	-1463.0646	-1465.9577	-1466.7061	-1467.9272	-1471.4834	-1472.6105	-1474.6851	-1475.7574	-1477.8517	-1479.2676	-1481.1759	-1476.9807	-1484.5242	-1487.0343	-1489.9493	-1491.4746	-1493.8118	-1494.9936	-1496.1665	-1497.9217	-1498.7314	-1500.4493	-1502.9112	-1503.5087	-1505.9488	-1508.4260	-1510.3759	-1513.1093	-1513.2865	-1514.4617	-1516.2343	-1518.6306	-1519.2543	-1520.7009	-1521.5565	-1525.0667	-1527.1829	-1528.5923	-1529.4480	-1531.4810	-1532.1091	-1533.1923	-1537.8230	-1536.3612	-1538.5627	-1538.3417	-1540.6395	-1544.0009	-1544.2416	-1545.8436	-1547.8131	-1549.4194	-1551.0301	-1551.7742	-1553.6715	-1555.3894	-1555.6827	-1556.8754	-1559.0463	-1561.1318	-1562.5981	-1564.1299	-1566.7954	-1566.1323	-1569.0473	-1569.8614	-1570.8506	-1572.2293	-1573.3344	-1575.0282	-1578.1599	-1577.7134	-1581.0814	-1582.0574	-1583.6156	-1584.7448	-1585.8325	-1586.7013	-1588.2813	-1588.7124	-1590.5507	-1592.3780	-1595.2339	-1599.0986	-1596.8642	-1596.0567	-1598.1248	-1601.0288	-1601.3330	-1602.1558	-1603.0312	-1604.6156	-1607.1542	-1608.6160	-1610.5090	-1611.6426	-1613.1110	-1613.6975	-1615.7897	-1616.1901	-1618.2866	-1617.7045	-1620.7902	-1622.4643	-1623.7095	-1624.4974	-1626.0599	-1626.6967	-1628.1870	-1630.5549	-1631.1348	-1629.7452
-1409.2931	-1422.1784	-1427.6298	-1431.4092	-1433.7683	-1437.5017	-1440.5852	-1443.5352	-1444.0101	-1447.0738	-1450.7832	-1451.4354	-1452.8009	-1456.1952	-1459.0423	-1461.7318	-1462.8961	-1464.5221	-1466.3472	-1467.1525	-1470.6037	-1472.1596	-1473.8316	-1475.2015	-1477.3352	-1478.9087	-1480.4362	-1479.1407	-1485.4564	-1486.1064	-1489.1111	-1490.7371	-1493.0218	-1493.7265	-1496.1512	-1497.4927	-1497.9567	-1500.2742	-1503.5568	-1502.5677	-1506.0779	-1508.0037	-1509.0694	-1511.6343	-1512.5228	-1514.0481	-1516.0133	-1517.6174	-1519.1186	-1519.0946	-1521.0247	-1525.6642	-1526.0121	-1527.6622	-1529.1525	-1531.2775	-1530.9755	-1532.3060	-1537.1840	-1535.2188	-1538.0834	-1538.5824	-1540.1624	-1541.2982	-1543.3072	-1545.9727	-1547.9598	-1549.5770	-1550.6734	-1551.4109	-1553.4833	-1555.0349	-1554.7570	-1556.5186	-1559.2388	-1560.3746	-1561.6045	-1564.0906	-1565.5174	-1565.9595	-1569.1239	-1568.9860	-1570.7565	-1572.0629	-1572.5904	-1575.4681	-1576.6105	-1577.3830	-1579.6436	-1581.6329	-1582.4995	-1584.0686	-1585.2832	-1585.4604	-1588.0012	-1588.5964	-1591.0715	-1592.0672	-1595.2098	-1598.6369	-1596.6717	-1595.9539	-1598.0788	-1599.9630	-1601.0419	-1601.7422	-1603.9416	-1603.5542	-1606.5961	-1608.1587	-1610.0013	-1610.9642	-1612.9994	-1613.2073	-1615.6605	-1615.0390	-1617.8490	-1617.0152	-1619.9170	-1621.6765	-1622.9567	-1625.0248	-1625.2195	-1626.1627	-1627.7296	-1629.6861	-1629.3863	-1630.5111
-1409.5228	-1421.5307	-1425.9819	-1430.6761	-1432.9082	-1436.7489	-1440.0075	-1442.2243	-1444.1064	-1445.9293	-1449.3673	-1450.9364	-1454.0505	-1456.4031	-1459.2327	-1460.7865	-1462.3949	-1465.0560	-1465.9774	-1466.5485	-1469.9909	-1471.2121	-1473.1182	-1474.7879	-1476.9501	-1477.8101	-1479.1932	-1482.2067	-1484.6993	-1486.9402	-1488.3276	-1490.7305	-1491.5971	-1493.4157	-1495.5122	-1497.0463	-1498.0311	-1499.7862	-1502.4714	-1502.7777	-1506.2398	-1508.2991	-1509.0913	-1511.3388	-1511.4658	-1513.8796	-1515.6084	-1517.1600	-1518.5168	-1519.6679	-1521.9942	-1524.4409	-1525.9180	-1527.6316	-1529.0431	-1530.2796	-1530.8551	-1532.1003	-1535.7353	-1535.1006	-1537.7683	-1537.6304	-1538.9479	-1541.5411	-1543.6573	-1545.3818	-1548.4478	-1549.4238	-1550.1372	-1550.9294	-1553.4636	-1553.7897	-1554.7657	-1556.6609	-1558.8055	-1560.8736	-1562.4667	-1563.0292	-1565.6596	-1565.5918	-1567.8590	-1568.3974	-1569.9380	-1572.4000	-1572.1133	-1575.2996	-1575.7701	-1577.7222	-1579.2344	-1580.7641	-1580.8823	-1582.8825	-1584.7995	-1585.3554	-1587.9268	-1588.9181	-1589.9357	-1592.2708	-1594.9363	-1597.4551	-1596.2143	-1595.0566	-1597.8578	-1600.1534	-1601.0004	-1601.2805	-1603.2588	-1603.9394	-1606.0425	-1608.0580	-1609.4017	-1610.2180	-1612.2729	-1612.6318	-1614.8443	-1614.7195	-1617.0086	-1617.9562	-1618.9672	-1621.6634	-1622.4796	-1623.7030	-1624.6462	-1625.8782	-1627.6093	-1628.3687	-1628.8392	-1630.4061
-1407.9888	-1421.9005	-1426.2489	-1430.2296	-1432.5209	-1436.7883	-1439.4910	-1441.5197	-1443.1916	-1445.3034	-1448.7524	-1451.2078	-1452.5361	-1455.4686	-1458.3135	-1460.4669	-1462.3183	-1464.3142	-1465.5178	-1467.0957	-1469.7852	-1470.1682	-1473.0394	-1474.9914	-1476.5759	-1477.8648	-1480.3268	-1485.1282	-1483.1914	-1486.0517	-1488.1416	-1489.7260	-1491.0216	-1493.5930	-1494.7331	-1495.8514	-1497.1732	-1499.2391	-1501.7142	-1502.7843	-1505.2660	-1507.3975	-1508.6383	-1510.7698	-1511.1397	-1512.5994	-1513.9540	-1516.1840	-1517.7881	-1518.5518	-1520.4711	-1522.9921	-1524.7341	-1527.5068	-1528.3384	-1530.0651	-1531.2621	-1532.5577	-1534.0743	-1535.1094	-1537.3831	-1537.5341	-1538.6218	-1540.4272	-1542.3574	-1545.0645	-1547.3185	-1548.9599	-1549.4216	-1550.4764	-1551.7851	-1553.2885	-1555.3763	-1555.0393	-1558.7443	-1559.5518	-1562.0137	-1562.6418	-1565.2745	-1564.8543	-1566.7495	-1568.1369	-1569.5266	-1571.6515	-1572.1592	-1574.0019	-1575.3127	-1576.0984	-1579.4664	-1580.2761	-1580.6875	-1582.0552	-1583.7907	-1585.1387	-1587.4584	-1587.9136	-1589.3011	-1590.9840	-1594.0456	-1596.5185	-1596.2581	-1594.9450	-1597.3391	-1599.8536	-1600.0571	-1601.2039	-1601.7991	-1604.4318	-1606.1037	-1606.7274	-1608.0449	-1610.3361	-1611.3712	-1611.8396	-1614.4044	-1614.9274	-1615.5664	-1617.4769	-1618.6390	-1621.0528	-1622.7313	-1623.1624	-1624.1516	-1626.1474	-1625.8410	-1627.5743	-1628.4825	-1630.4323
-1407.4592	-1421.1368	-1425.2597	-1429.3564	-1432.1883	-1437.0312	-1439.3794	-1441.0645	-1441.7648	-1444.9511	-1448.4722	-1451.1815	-1451.8074	-1454.6852	-1457.5979	-1459.9089	-1462.0798	-1463.9312	-1464.6665	-1466.8330	-1469.1834	-1469.8924	-1472.1334	-1474.6238	-1476.1601	-1477.6460	-1480.6813	-1487.5770	-1483.7210	-1485.8263	-1487.7412	-1488.7675	-1491.3280	-1492.5557	-1494.4946	-1496.5167	-1497.5474	-1498.9524	-1501.0795	-1502.6552	-1504.4169	-1506.5746	-1507.8811	-1509.8244	-1511.4089	-1512.2733	-1513.7001	-1515.3655	-1516.9171	-1517.4357	-1520.6615	-1521.3880	-1524.5350	-1526.9575	-1527.6250	-1529.0300	-1530.2949	-1531.2556	-1533.4571	-1534.6017	-1535.8775	-1537.6983	-1538.3373	-1539.8429	-1542.2721	-1545.2067	-1546.2243	-1548.4565	-1549.1524	-1549.1415	-1551.3781	-1553.4527	-1554.9430	-1555.2581	-1557.4990	-1559.7203	-1560.9874	-1562.4799	-1564.4604	-1563.8148	-1567.1346	-1567.2834	-1568.7015	-1571.1044	-1570.8878	-1573.2250	-1574.5249	-1575.8708	-1578.3262	-1579.7924	-1580.4730	-1581.3790	-1583.1932	-1583.9220	-1586.4211	-1587.0930	-1589.3339	-1590.5594	-1593.9252	-1594.7152	-1595.3674	-1593.9799	-1597.4617	-1598.3020	-1600.0703	-1600.2891	-1602.0530	-1603.5674	-1607.7647	-1606.7778	-1608.2243	-1610.2727	-1610.8810	-1611.3691	-1613.9645	-1614.4000	-1615.8225	-1616.5819	-1617.6717	-1620.8230	-1622.0682	-1623.1340	-1624.2873	-1625.1648	-1625.2677	-1626.3597	-1627.5852	-1629.7452
-1407.6496	-1419.6946	-1424.9512	-1427.9493	-1432.2014	-1435.8648	-1438.7754	-1439.5610	-1440.9485	-1445.0430	-1447.7982	-1449.5686	-1452.0547	-1455.4226	-1455.9807	-1460.1715	-1461.7122	-1463.7627	-1464.6271	-1466.7455	-1467.9272	-1469.8399	-1471.6432	-1474.5100	-1475.2978	-1478.1296	-1480.0729	-1488.5968	-1482.5459	-1485.5265	-1487.3407	-1489.0236	-1490.8771	-1491.6518	-1493.7877	-1496.0637	-1496.8822	-1498.3659	-1500.1538	-1502.9506	-1504.0799	-1506.4105	-1508.2794	-1509.5203	-1510.2337	-1511.3892	-1512.9429	-1514.9628	-1516.9434	-1517.5692	-1519.9218	-1520.3310	-1524.7998	-1526.0559	-1527.8548	-1528.4960	-1529.4020	-1530.8989	-1532.5993	-1534.4310	-1535.5886	-1536.9455	-1537.8799	-1540.1602	-1541.8256	-1543.8040	-1546.0865	-1547.4455	-1548.0779	-1549.2050	-1550.1876	-1553.0981	-1553.0216	-1555.4485	-1557.2343	-1559.0003	-1560.6722	-1562.6353	-1563.0204	-1564.6201	-1565.9945	-1566.4540	-1568.2967	-1571.2904	-1570.2597	-1573.8771	-1574.5118	-1575.0764	-1578.2036	-1578.4553	-1579.1425	-1580.9063	-1582.8059	-1583.4668	-1585.6968	-1586.8982	-1588.7409	-1590.1918	-1592.7457	-1593.4722	-1594.5467	-1593.7611	-1597.8950	-1598.2211	-1598.9038	-1600.0900	-1600.9062	-1603.0575	-1608.4147	-1605.1693	-1608.5329	-1609.4629	-1610.0254	-1611.3034	-1613.1088	-1614.2381	-1614.7764	-1615.4920	-1618.3370	-1619.6259	-1621.3132	-1622.0507	-1624.0991	-1624.4120	-1624.7994	-1626.3356	-1627.0250	-1629.0121
-1406.9230	-1419.7165	-1424.8352	-1426.3321	-1430.9956	-1435.5343	-1438.3202	-1439.0818	-1440.9463	-1444.8679	-1447.1001	-1449.0040	-1451.8446	-1453.9301	-1456.1317	-1458.4711	-1460.9900	-1462.9508	-1463.8896	-1466.7368	-1467.4173	-1469.0018	-1470.6540	-1474.1139	-1474.5757	-1478.1493	-1479.1998	-1488.4239	-1481.2065	-1484.9203	-1487.5333	-1487.8834	-1489.6582	-1491.4549	-1492.8949	-1495.5407	-1496.2475	-1497.7050	-1499.2719	-1501.3443	-1503.0032	-1505.8525	-1507.9052	-1509.2489	-1509.3167	-1511.1813	-1511.8706	-1514.4311	-1516.2409	-1517.2782	-1519.9065	-1521.0510	-1522.9133	-1526.2857	-1527.0779	-1528.2203	-1529.2247	-1531.5707	-1531.0608	-1534.2034	-1535.3304	-1536.0438	-1537.6633	-1539.4950	-1540.0990	-1543.7580	-1545.8523	-1546.0493	-1547.3142	-1548.8854	-1549.4632	-1552.1506	-1553.2513	-1554.3849	-1556.8009	-1558.5604	-1559.7662	-1562.2107	-1562.5587	-1564.6333	-1564.3729	-1566.9618	-1568.1960	-1570.3976	-1570.5201	-1572.2643	-1573.6342	-1575.7701	-1578.0001	-1577.9104	-1578.8295	-1581.2871	-1582.6899	-1582.4163	-1583.7797	-1586.2242	-1588.2572	-1589.3952	-1592.3036	-1592.4874	-1593.5510	-1594.0456	-1596.8993	-1598.5077	-1598.2955	-1600.1315	-1600.4642	-1602.7358	-1607.5437	-1605.0599	-1607.5743	-1608.1280	-1608.9509	-1610.0823	-1612.7303	-1614.2775	-1613.3233	-1615.3016	-1616.9955	-1618.3413	-1620.4247	-1622.3768	-1622.7182	-1624.6681	-1623.5979	-1626.2984	-1626.8521	-1627.6749
-1406.9733	-1419.3116	-1424.3253	-1425.8462	-1431.2407	-1435.4687	-1437.7993	-1438.9439	-1441.0294	-1444.5922	-1446.7018	-1448.6648	-1450.7985	-1454.3394	-1456.7641	-1457.0771	-1459.9921	-1461.6728	-1463.3753	-1465.9796	-1467.3955	-1468.4196	-1469.8837	-1473.7287	-1474.8229	-1476.8100	-1478.5717	-1486.2771	-1479.7403	-1484.3819	-1486.8570	-1487.4873	-1489.6232	-1490.8947	-1491.8838	-1494.5799	-1496.7771	-1496.7990	-1498.4140	-1501.3312	-1503.2286	-1504.8458	-1507.3581	-1508.5902	-1509.6428	-1510.5773	-1512.0807	-1513.7964	-1515.2451	-1516.6939	-1520.3595	-1520.7906	-1522.8127	-1525.8502	-1526.3557	-1527.5200	-1529.1700	-1531.1221	-1531.3519	-1533.7482	-1533.3586	-1536.2671	-1537.7749	-1538.8275	-1539.7226	-1543.4516	-1544.7647	-1545.1323	-1546.9421	-1548.1852	-1548.8220	-1551.4962	-1551.9427	-1553.2448	-1555.9387	-1558.4598	-1558.1118	-1560.8429	-1562.5390	-1564.3269	-1564.1671	-1565.9463	-1567.3622	-1569.4434	-1570.2181	-1572.0739	-1573.3585	-1575.6323	-1577.1007	-1577.6806	-1578.9061	-1580.7050	-1581.5060	-1582.3419	-1583.2436	-1586.6181	-1588.5942	-1588.7781	-1592.0388	-1591.6361	-1590.0889	-1592.9973	-1596.3062	-1597.5317	-1597.8994	-1599.2803	-1600.1863	-1603.3288	-1604.7622	-1606.1563	-1606.0293	-1607.8085	-1608.0908	-1610.5528	-1610.7935	-1613.1986	-1613.0410	-1613.4218	-1616.2273	-1618.0853	-1619.8973	-1621.7071	-1622.2914	-1623.3484	-1623.2434	-1626.3225	-1626.5873	-1627.3073
-1407.2009	-1417.4449	-1423.7322	-1426.6866	-1432.1401	-1434.5233	-1435.7816	-1439.2174	-1440.5305	-1444.2880	-1446.5136	-1447.3408	-1451.5404	-1453.7266	-1454.7311	-1457.8255	-1459.3684	-1461.1125	-1462.8457	-1465.6819	-1466.6011	-1468.0673	-1469.3519	-1473.7134	-1473.4399	-1476.6174	-1477.5147	-1482.7144	-1478.8781	-1484.2309	-1485.9204	-1486.8133	-1488.8704	-1489.8136	-1491.3695	-1494.5055	-1495.6260	-1496.1140	-1497.7707	-1501.7623	-1503.1126	-1504.4453	-1506.5112	-1507.6645	-1508.9381	-1510.5401	-1511.6211	-1512.8357	-1514.6236	-1516.6501	-1519.2893	-1519.6439	-1522.7273	-1524.3008	-1525.8677	-1527.3536	-1528.8965	-1530.3802	-1531.4044	-1532.5402	-1532.0237	-1535.3807	-1537.8427	-1539.9173	-1540.3572	-1542.7010	-1543.5304	-1545.1892	-1546.4279	-1546.9859	-1548.0079	-1551.3759	-1550.2576	-1553.1441	-1555.6870	-1556.7462	-1558.0308	-1560.9414	-1562.0028	-1562.9920	-1564.0271	-1564.8127	-1566.6357	-1568.9992	-1569.8745	-1570.9666	-1574.0216	-1574.0938	-1576.6127	-1576.9103	-1577.7703	-1580.1842	-1581.1908	-1581.9808	-1582.9919	-1586.8085	-1588.5592	-1587.2746	-1590.9052	-1591.1547	-1588.5023	-1592.3058	-1595.5490	-1596.4025	-1597.8709	-1599.7354	-1599.6545	-1602.7007	-1603.4470	-1604.4712	-1606.1978	-1607.0316	-1608.4541	-1610.4237	-1609.5264	-1611.8768	-1613.0848	-1613.1461	-1616.2952	-1617.7176	-1618.8994	-1620.3240	-1622.0967	-1622.5387	-1623.1471	-1625.4646	-1625.3508	-1627.4933
-1406.3212	-1416.5805	-1423.4827	-1427.0783	-1430.6739	-1433.5451	-1435.0857	-1438.6594	-1440.2569	-1443.1872	-1444.7782	-1447.1483	-1451.0305	-1453.2933	-1454.3503	-1456.7576	-1457.8671	-1460.7120	-1462.6751	-1464.7431	-1466.8287	-1467.5968	-1468.7501	-1472.3982	-1472.1881	-1475.3547	-1476.0813	-1477.8036	-1479.6068	-1482.4189	-1485.6972	-1486.1896	-1488.2948	-1489.0433	-1491.4177	-1493.6433	-1494.9170	-1495.4531	-1496.6940	-1502.0206	-1502.3116	-1504.1149	-1504.5285	-1507.4938	-1508.2160	-1511.2119	-1510.7195	-1512.6978	-1514.2932	-1515.8754	-1519.8211	-1520.3901	-1521.8695	-1523.4473	-1525.2593	-1526.9269	-1528.0933	-1529.7915	-1530.2227	-1531.4591	-1532.3388	-1534.1902	-1538.0331	-1539.3702	-1538.7028	-1542.0882	-1543.4363	-1544.1388	-1545.5240	-1547.2463	-1547.2573	-1550.4152	-1550.4108	-1553.5599	-1555.1553	-1556.5055	-1558.3197	-1560.0245	-1561.3813	-1562.8629	-1562.9701	-1565.0381	-1566.6401	-1566.9749	-1569.2333	-1570.6295	-1572.7589	-1573.6342	-1576.0130	-1576.7877	-1577.6434	-1579.7399	-1581.4644	-1581.5060	-1582.4470	-1585.5720	-1587.3928	-1587.1083	-1589.9270	-1590.2049	-1587.2068	-1592.4677	-1594.6693	-1596.0480	-1597.7965	-1598.6215	-1599.0570	-1602.0617	-1603.1800	-1604.9045	-1605.3050	-1605.6726	-1607.1673	-1608.9443	-1609.4958	-1610.4587	-1612.2204	-1613.2183	-1616.1792	-1617.4638	-1618.3041	-1620.4225	-1621.0112	-1621.2935	-1623.3638	-1625.1101	-1625.4209	-1626.7886
-1407.1834	-1416.4886	-1423.5068	-1426.5640	-1430.0042	-1432.6106	-1435.4928	-1438.1561	-1440.0184	-1442.0952	-1444.9051	-1446.9710	-1449.5096	-1453.0023	-1455.1578	-1456.6657	-1457.1559	-1460.1671	-1461.6334	-1463.7955	-1465.8789	-1467.6646	-1468.7632	-1472.1793	-1471.7876	-1474.1971	-1477.1076	-1475.8559	-1479.6768	-1482.1519	-1484.6205	-1486.2662	-1487.9666	-1488.3495	-1490.4986	-1492.1224	-1494.4552	-1494.7134	-1496.5298	-1500.5587	-1502.1672	-1503.1432	-1504.0974	-1507.2093	-1507.9337	-1510.1790	-1510.9559	-1512.8554	-1513.5623	-1515.9454	-1518.6678	-1520.0640	-1521.2261	-1523.5239	-1524.2570	-1525.4322	-1527.3558	-1528.8746	-1529.6121	-1531.3431	-1532.1747	-1533.3368	-1536.4115	-1539.2367	-1538.5386	-1541.0684	-1543.5173	-1543.9659	-1545.0098	-1546.4191	-1546.7758	-1549.9512	-1549.6295	-1552.0149	-1554.6366	-1556.5602	-1557.5231	-1558.3328	-1561.0399	-1562.1275	-1562.3136	-1564.6617	-1565.3423	-1566.2352	-1567.8262	-1571.1745	-1572.8376	-1574.0216	-1575.3106	-1576.1203	-1577.1795	-1578.9499	-1580.3111	-1581.5585	-1582.6986	-1584.9155	-1586.5262	-1586.6728	-1588.6861	-1590.2312	-1587.0755	-1592.1854	-1593.9274	-1595.6956	-1596.3543	-1597.7090	-1599.0855	-1601.8910	-1601.6284	-1604.7491	-1604.2042	-1605.7908	-1607.4430	-1608.3294	-1608.2418	-1610.5243	-1611.6492	-1612.6493	-1615.7853	-1617.1946	-1618.3435	-1619.5428	-1620.4597	-1620.1862	-1622.6197	-1624.5411	-1625.1583	-1625.6353
-1406.4547	-1416.3967	-1422.6643	-1427.1068	-1429.7219	-1432.6872	-1434.4773	-1437.6571	-1439.6026	-1440.3401	-1445.1590	-1446.2335	-1449.3389	-1451.9365	-1455.5715	-1455.8713	-1457.4316	-1459.3574	-1460.9856	-1462.8961	-1465.3318	-1466.8418	-1469.0740	-1470.2382	-1470.1310	-1473.4027	-1475.1446	-1473.8841	-1479.5784	-1481.1475	-1484.0230	-1485.7322	-1486.9380	-1487.9403	-1489.8924	-1491.5796	-1493.1115	-1494.0175	-1497.6941	-1499.9547	-1501.6857	-1502.5108	-1503.6159	-1507.2968	-1507.2684	-1509.3911	-1510.5751	-1512.3652	-1512.7482	-1515.3414	-1517.6984	-1519.2521	-1520.8694	-1522.9768	-1522.8061	-1526.1238	-1526.6818	-1528.1830	-1530.1176	-1530.2467	-1530.7741	-1532.8006	-1535.5689	-1539.4972	-1539.1776	-1540.0771	-1542.3049	-1543.7471	-1544.9879	-1545.2592	-1547.1697	-1549.5945	-1549.5288	-1551.1548	-1553.9319	-1556.0569	-1557.6894	-1558.1293	-1560.5803	-1561.0618	-1562.4558	-1563.8936	-1563.9308	-1566.1148	-1567.5373	-1570.3757	-1571.8222	-1572.9886	-1574.4089	-1575.8839	-1576.5864	-1578.9258	-1579.5233	-1581.4294	-1581.9130	-1584.9615	-1585.4539	-1586.4999	-1587.3381	-1590.9468	-1587.8896	-1591.0343	-1592.3452	-1594.0828	-1596.8139	-1597.8337	-1598.1839	-1601.2170	-1601.6613	-1603.5214	-1603.8300	-1605.4691	-1607.0469	-1608.3469	-1608.5329	-1609.6118	-1612.2729	-1613.6319	-1615.3498	-1616.6366	-1617.0677	-1618.6455	-1619.8907	-1619.8185	-1622.4906	-1624.4733	-1624.6418	-1625.2917
-1405.8419	-1415.7730	-1422.3470	-1426.9886	-1427.8070	-1431.5558	-1434.2279	-1436.5760	-1438.3443	-1440.2263	-1445.1459	-1445.1349	-1448.4963	-1451.5426	-1454.4357	-1455.6874	-1456.8582	-1459.6047	-1460.9024	-1461.7887	-1464.6359	-1466.1240	-1468.0301	-1469.0215	-1470.0653	-1472.0065	-1474.1839	-1472.3281	-1479.6396	-1479.9570	-1484.2441	-1485.1129	-1486.3449	-1487.0037	-1490.3125	-1491.0282	-1491.8641	-1493.3785	-1497.7335	-1499.9919	-1500.3574	-1501.7820	-1502.9266	-1506.1151	-1506.3755	-1508.7959	-1510.0564	-1511.5423	-1512.4155	-1515.1685	-1518.2039	-1520.3770	-1520.3223	-1521.7513	-1522.9287	-1525.1302	-1525.1018	-1527.7935	-1529.3210	-1529.2751	-1530.9251	-1532.6868	-1534.6936	-1538.0550	-1538.9085	-1539.4118	-1541.7687	-1543.0227	-1544.0250	-1544.6202	-1546.7036	-1548.9117	-1549.7258	-1551.2227	-1554.0238	-1554.8708	-1557.2583	-1556.9257	-1559.4227	-1560.7248	-1562.8038	-1563.4034	-1563.9352	-1564.7077	-1567.0996	-1570.1174	-1570.7783	-1572.1658	-1574.1551	-1575.6585	-1576.4113	-1578.9214	-1579.3263	-1580.2279	-1582.8671	-1585.0030	-1585.1519	-1586.2920	-1587.4759	-1590.6492	-1588.5176	-1591.1984	-1591.6536	-1593.8880	-1595.8576	-1597.8797	-1598.1182	-1601.0200	-1601.4818	-1603.5849	-1603.4711	-1604.4777	-1605.4997	-1608.1215	-1608.8765	-1608.4694	-1612.0890	-1613.3058	-1614.7064	-1616.1267	-1615.9166	-1617.6980	-1619.2211	-1618.9497	-1622.7816	-1623.9853	-1624.4820	-1624.3179
-1405.8901	-1414.8494	-1422.1850	-1425.9710	-1427.2271	-1430.1837	-1433.8733	-1435.0770	-1437.4952	-1439.4428	-1443.4126	-1446.0409	-1447.7369	-1450.7854	-1454.6808	-1455.7159	-1456.3177	-1459.5872	-1460.2678	-1461.6749	-1463.5548	-1465.6163	-1467.5705	-1467.9645	-1470.3061	-1471.4243	-1474.8186	-1472.6783	-1479.4492	-1480.5435	-1483.0032	-1484.6183	-1485.6228	-1486.6820	-1489.8858	-1490.4220	-1491.1201	-1493.4792	-1496.5911	-1499.1734	-1500.0006	-1500.9132	-1503.2307	-1504.9093	-1506.6337	-1508.3188	-1509.8857	-1510.8311	-1511.7306	-1514.2822	-1517.0156	-1519.4688	-1519.6636	-1521.4668	-1522.4910	-1522.7602	-1524.8917	-1526.8569	-1528.7980	-1528.1568	-1531.1418	-1533.4659	-1534.2865	-1536.9301	-1537.9478	-1538.9413	-1541.8541	-1542.7710	-1543.1846	-1544.8259	-1546.1762	-1548.3821	-1549.3735	-1550.5421	-1553.2382	-1555.0064	-1556.1751	-1556.2692	-1559.5474	-1559.9063	-1561.5607	-1562.1078	-1563.7951	-1564.5239	-1566.8501	-1569.2552	-1570.5880	-1572.2599	-1573.3344	-1574.4286	-1576.3238	-1577.3064	-1579.3854	-1579.4860	-1583.4449	-1584.1999	-1585.2022	-1585.6705	-1588.2441	-1590.0955	-1590.6579	-1590.4697	-1591.8484	-1593.8814	-1595.1529	-1597.5055	-1597.0349	-1600.0943	-1599.6610	-1602.9437	-1603.0137	-1603.6768	-1606.2722	-1607.0973	-1608.5285	-1608.0602	-1611.1633	-1613.2883	-1614.7020	-1615.4898	-1615.8444	-1617.5426	-1617.9803	-1618.1247	-1622.2017	-1623.0836	-1624.1428	-1625.4778
-1404.4742	-1414.5606	-1421.7079	-1424.7783	-1426.7916	-1430.4397	-1432.8316	-1434.3876	-1437.6637	-1438.7863	-1443.3076	-1445.9424	-1447.0191	-1449.3498	-1454.8799	-1454.0724	-1456.1930	-1458.4711	-1459.2983	-1460.9418	-1464.1325	-1464.3733	-1467.2992	-1467.7959	-1469.3453	-1470.9845	-1475.0899	-1474.0439	-1479.1954	-1480.1364	-1482.5196	-1483.4059	-1484.3994	-1485.7606	-1488.7019	-1489.3496	-1490.9472	-1492.3872	-1496.1206	-1497.9238	-1500.3005	-1500.5390	-1502.5983	-1505.3754	-1505.4104	-1507.3078	-1509.1635	-1510.4635	-1510.4525	-1513.0808	-1515.7704	-1518.8210	-1519.7292	-1521.0992	-1521.7053	-1522.1299	-1524.6006	-1526.0165	-1528.7608	-1528.3012	-1530.3277	-1532.4417	-1535.5711	-1536.0023	-1538.2235	-1538.6480	-1540.6855	-1541.7884	-1543.6530	-1544.6487	-1545.6160	-1547.4980	-1549.9578	-1551.3430	-1551.8201	-1554.6322	-1555.4770	-1556.2166	-1558.9697	-1558.9281	-1561.4491	-1562.2129	-1562.8016	-1564.7887	-1566.0076	-1569.2399	-1570.2400	-1572.0279	-1572.9011	-1573.6627	-1576.3260	-1576.9322	-1578.4619	-1580.4380	-1582.2522	-1583.2939	-1584.9243	-1585.6705	-1587.6576	-1590.0233	-1591.4238	-1589.2332	-1591.2510	-1592.1438	-1595.3477	-1596.4353	-1597.1925	-1599.1074	-1599.6063	-1601.4927	-1602.1449	-1603.9744	-1605.7011	-1606.4079	-1608.6029	-1607.2636	-1610.8723	-1612.5355	-1613.8048	-1615.2426	-1615.4767	-1617.1005	-1618.4026	-1618.9453	-1621.0243	-1621.9654	-1623.1777	-1624.4580
-1404.1481	-1414.6043	-1420.6816	-1423.9445	-1426.3386	-1430.2471	-1432.7638	-1433.9915	-1436.7205	-1438.3311	-1443.1610	-1444.6097	-1446.3013	-1449.7700	-1453.4553	-1453.7551	-1455.7312	-1457.8540	-1459.0467	-1460.9068	-1463.5220	-1464.3010	-1466.8418	-1467.0519	-1468.6866	-1471.5556	-1474.8908	-1474.7726	-1478.3375	-1480.3640	-1481.7536	-1483.4891	-1484.4498	-1485.1982	-1488.8507	-1489.5947	-1490.4723	-1492.5841	-1495.8974	-1497.6590	-1500.2042	-1500.1144	-1502.3838	-1503.8304	-1505.1938	-1505.5351	-1508.3538	-1509.6078	-1510.5225	-1513.4900	-1515.3392	-1518.0879	-1518.9085	-1519.9327	-1521.0882	-1522.6682	-1523.3204	-1525.9443	-1527.4346	-1528.0693	-1529.7915	-1531.5992	-1533.8817	-1534.9715	-1538.2519	-1537.6895	-1540.4994	-1540.8802	-1542.6791	-1543.3247	-1545.1389	-1546.6730	-1549.6842	-1550.6537	-1551.6297	-1553.4943	-1554.6432	-1556.6696	-1558.1972	-1558.7333	-1561.6373	-1561.6133	-1562.3748	-1564.8521	-1566.2089	-1568.2814	-1568.6053	-1571.1723	-1572.0586	-1572.9733	-1575.5163	-1576.2844	-1577.6368	-1578.9849	-1582.0049	-1582.8124	-1584.1299	-1585.8828	-1586.9726	-1589.1216	-1591.1656	-1589.5090	-1590.9752	-1592.4896	-1593.9865	-1596.6607	-1596.7592	-1598.3589	-1599.7289	-1601.7663	-1601.7291	-1604.0269	-1605.4472	-1606.4998	-1608.5241	-1607.3861	-1609.7978	-1612.3210	-1612.8287	-1615.3520	-1614.2315	-1616.7919	-1618.7550	-1618.2932	-1620.0002	-1621.2979	-1622.1995	-1624.5871
-1402.6053	-1413.3000	-1419.1365	-1422.9925	-1425.4786	-1429.6563	-1432.4815	-1433.6589	-1435.3418	-1438.9789	-1441.6903	-1445.1918	-1446.5990	-1448.5926	-1452.4617	-1453.2561	-1455.0900	-1457.4272	-1458.2938	-1460.4210	-1462.2002	-1463.9049	-1466.2356	-1466.1327	-1469.1462	-1471.5359	-1476.2498	-1477.0945	-1477.9918	-1480.2305	-1481.4538	-1483.5241	-1483.4628	-1485.0516	-1488.0694	-1489.4131	-1489.7961	-1492.0261	-1494.7441	-1496.7465	-1499.1078	-1499.6483	-1502.6180	-1502.2088	-1505.1959	-1505.2660	-1507.9949	-1508.8462	-1510.0126	-1512.2536	-1515.9017	-1517.5342	-1517.8625	-1518.8407	-1520.9810	-1522.4385	-1522.8521	-1525.6117	-1526.9335	-1527.8898	-1528.8746	-1530.7085	-1531.6079	-1534.8752	-1537.6414	-1536.7113	-1539.9742	-1541.0619	-1542.2130	-1543.2262	-1545.5153	-1546.4191	-1549.5267	-1550.9907	-1551.1723	-1551.9405	-1554.4747	-1557.0198	-1557.4575	-1558.7092	-1561.0465	-1560.7992	-1561.5848	-1564.8631	-1565.6006	-1568.2770	-1569.2924	-1570.7018	-1571.8769	-1572.2183	-1574.0478	-1575.5228	-1577.1795	-1579.2453	-1581.3243	-1582.2719	-1583.0663	-1584.9680	-1586.8194	-1588.2310	-1591.2925	-1588.8897	-1591.2860	-1593.2249	-1594.0609	-1595.2864	-1596.2624	-1597.8250	-1598.9914	-1600.2716	-1601.6372	-1603.1209	-1604.9373	-1605.5851	-1607.5481	-1606.5961	-1608.9990	-1612.0847	-1613.3058	-1613.2752	-1614.1483	-1616.4921	-1617.8555	-1617.8096	-1619.4005	-1621.2804	-1621.7400	-1624.8606
-1402.3448	-1412.4203	-1418.8893	-1422.0450	-1424.9599	-1429.9364	-1430.7242	-1432.8557	-1435.0988	-1439.3728	-1440.6727	-1444.7891	-1446.4698	-1447.7873	-1451.6805	-1451.6826	-1454.1074	-1456.5147	-1457.2368	-1459.7973	-1461.9004	-1463.7299	-1465.2924	-1466.6799	-1468.4787	-1471.1530	-1475.6764	-1478.8715	-1477.0420	-1479.5762	-1481.5633	-1482.0775	-1482.5962	-1484.5592	-1486.9205	-1487.8659	-1489.2161	-1492.7504	-1494.8404	-1496.4489	-1498.5016	-1499.8847	-1502.2919	-1501.4297	-1504.1586	-1504.6138	-1507.0408	-1508.2926	-1510.3103	-1511.4045	-1514.8906	-1517.2651	-1517.1819	-1518.4183	-1520.7643	-1521.4230	-1523.0447	-1524.3205	-1526.4761	-1527.2880	-1528.0539	-1529.8900	-1533.0063	-1534.9934	-1536.7813	-1537.1818	-1539.4315	-1540.2346	-1542.3508	-1542.7338	-1544.7865	-1545.8085	-1548.4697	-1549.5551	-1551.1811	-1552.1002	-1553.6846	-1555.4113	-1557.4684	-1558.8252	-1560.4906	-1560.5891	-1561.5148	-1564.0971	-1565.8982	-1568.1347	-1569.0145	-1570.1174	-1571.3845	-1571.6187	-1573.6671	-1574.3498	-1576.4288	-1579.4029	-1580.3111	-1581.9196	-1582.7380	-1584.0401	-1585.8565	-1587.5241	-1591.0846	-1587.4169	-1591.1678	-1592.4852	-1593.3540	-1594.5445	-1597.2604	-1596.6782	-1599.5385	-1599.3787	-1600.8559	-1602.7730	-1604.4931	-1604.1757	-1606.7559	-1606.4276	-1608.5197	-1611.6514	-1613.2642	-1612.5530	-1614.9121	-1616.5622	-1616.9648	-1617.5119	-1618.3392	-1620.2103	-1621.3198	-1623.4404
-1402.1566	-1412.9083	-1418.7492	-1421.1258	-1424.8330	-1428.8553	-1430.3259	-1432.7003	-1434.4948	-1438.2217	-1441.2767	-1444.4696	-1446.2291	-1448.5773	-1451.0524	-1450.6300	-1454.1971	-1456.0945	-1456.4906	-1459.8082	-1460.8609	-1463.5220	-1465.6163	-1466.8527	-1467.9841	-1471.6366	-1474.9652	-1478.4207	-1476.3308	-1479.6024	-1480.8017	-1480.9855	-1482.7756	-1484.6445	-1486.8351	-1487.8068	-1489.4853	-1490.8465	-1494.4005	-1495.6654	-1498.1186	-1499.8562	-1501.7755	-1501.4822	-1503.3861	-1503.9748	-1506.4302	-1508.1459	-1509.7128	-1512.0479	-1514.6127	-1516.0133	-1517.0703	-1518.1185	-1520.0509	-1521.4208	-1522.5085	-1523.5764	-1525.7473	-1526.2179	-1527.8679	-1530.0213	-1533.0895	-1533.5644	-1535.9169	-1536.8711	-1538.6590	-1539.4621	-1541.3529	-1542.2589	-1543.9856	-1546.1849	-1547.8460	-1549.3319	-1550.9294	-1552.9406	-1552.7327	-1556.2035	-1556.0678	-1557.8186	-1559.2673	-1560.3309	-1561.1406	-1564.2612	-1565.6203	-1566.5766	-1568.5637	-1568.9248	-1570.6996	-1571.2335	-1573.8706	-1574.4352	-1575.3106	-1578.2474	-1580.0156	-1581.2740	-1582.5761	-1583.1888	-1586.1366	-1586.1935	-1589.7169	-1586.7713	-1590.6360	-1591.5880	-1592.4765	-1595.7438	-1596.1333	-1596.1705	-1599.6238	-1598.4027	-1600.8100	-1601.9392	-1604.1560	-1603.9503	-1606.7537	-1606.4867	-1607.6225	-1611.0780	-1611.7214	-1612.0168	-1614.3869	-1615.7218	-1616.9802	-1617.2077	-1616.8948	-1619.9717	-1620.0286	-1623.2128
-1401.2069	-1412.3612	-1416.8409	-1420.3424	-1424.7980	-1427.8858	-1430.8249	-1433.2343	-1433.5429	-1438.2720	-1441.0141	-1443.3338	-1444.9204	-1446.8156	-1449.9450	-1450.9758	-1453.7004	-1455.5080	-1456.2521	-1459.9614	-1461.3029	-1462.6006	-1464.5877	-1466.0102	-1467.6778	-1470.4483	-1473.0459	-1477.3506	-1475.6414	-1479.6440	-1479.7841	-1480.5172	-1482.1519	-1484.7890	-1486.3187	-1487.8856	-1489.6144	-1490.2731	-1493.9125	-1494.9279	-1497.5781	-1499.5301	-1501.0598	-1500.5740	-1503.0601	-1503.8413	-1506.0910	-1507.4347	-1510.1308	-1511.3629	-1514.3041	-1515.5515	-1516.2671	-1517.4533	-1519.5366	-1521.3968	-1521.8782	-1523.2394	-1525.8677	-1525.4366	-1526.7650	-1530.5312	-1531.5773	-1533.2098	-1535.0459	-1536.1314	-1538.3876	-1539.0201	-1540.7533	-1541.9810	-1544.4583	-1545.0864	-1546.1499	-1548.8417	-1550.4130	-1551.0498	-1553.0062	-1556.3326	-1554.8292	-1557.3393	-1559.0922	-1558.5517	-1561.1012	-1564.3466	-1566.3315	-1566.5525	-1568.8285	-1568.5090	-1570.7105	-1571.0431	-1572.8595	-1574.4221	-1574.3301	-1578.9389	-1578.5319	-1581.6548	-1582.5061	-1582.3288	-1585.7756	-1584.9199	-1587.0864	-1587.4738	-1590.3537	-1590.4566	-1592.1132	-1594.4264	-1595.5753	-1595.9385	-1597.9191	-1597.0262	-1600.2388	-1601.4227	-1602.2215	-1603.7446	-1604.4099	-1606.4057	-1606.4758	-1609.5680	-1610.6731	-1611.9030	-1613.9492	-1614.5641	-1615.6999	-1617.0217	-1616.8248	-1619.4268	-1619.2298	-1622.1273
-1401.6117	-1411.5187	-1415.9809	-1420.4890	-1424.4894	-1427.2753	-1429.8270	-1431.8950	-1432.9367	-1439.6267	-1439.6879	-1441.9617	-1445.8987	-1446.1131	-1449.7875	-1450.8598	-1452.4486	-1454.7070	-1456.3111	-1459.0007	-1460.9506	-1461.4999	-1463.7342	-1465.7454	-1467.2882	-1469.3869	-1472.8184	-1475.8077	-1474.6719	-1478.4491	-1479.0969	-1480.1233	-1480.9833	-1484.3797	-1485.4105	-1487.2860	-1489.2424	-1491.1748	-1492.7417	-1494.0066	-1496.8318	-1499.4317	-1500.7841	-1500.6462	-1502.6880	-1503.4846	-1505.2135	-1506.6709	-1509.8376	-1510.2906	-1513.5447	-1514.7090	-1515.1642	-1516.9630	-1518.9808	-1520.1012	-1521.7994	-1523.5174	-1524.6334	-1524.8501	-1526.7781	-1528.9818	-1531.9362	-1533.3565	-1533.9495	-1536.3918	-1537.2693	-1538.7071	-1540.0399	-1541.0181	-1544.2373	-1543.5567	-1545.0513	-1548.5638	-1549.8374	-1550.2313	-1553.4767	-1555.4376	-1554.3412	-1557.3590	-1557.7660	-1558.1796	-1560.4031	-1562.9263	-1565.6093	-1566.3534	-1567.9203	-1567.6205	-1570.0387	-1571.7019	-1571.7303	-1573.7305	-1574.4199	-1577.0700	-1578.2211	-1581.1208	-1581.8780	-1581.8649	-1584.3334	-1584.7930	-1585.3707	-1586.9179	-1589.3427	-1590.8089	-1591.0234	-1593.2796	-1595.0851	-1595.5731	-1597.4595	-1597.1334	-1599.0833	-1600.9281	-1601.4665	-1602.9874	-1604.6725	-1607.5612	-1607.4671	-1609.2135	-1610.7454	-1611.7870	-1613.0410	-1614.4000	-1615.0762	-1615.9363	-1616.1354	-1618.8272	-1619.3305	-1622.3943
-1400.3534	-1411.5449	-1416.3244	-1420.6794	-1424.0889	-1426.8223	-1429.0544	-1432.2145	-1432.7222	-1437.5936	-1439.7974	-1442.8633	-1445.4260	-1445.6645	-1449.4395	-1449.8619	-1451.5754	-1454.9915	-1455.8603	-1459.1430	-1459.4428	-1460.8258	-1463.3184	-1465.5441	-1466.1896	-1468.5553	-1471.6585	-1473.9344	-1474.1730	-1476.8713	-1478.7927	-1479.4974	-1479.9745	-1484.2025	-1484.4870	-1487.1415	-1489.0389	-1490.1834	-1492.0414	-1494.5077	-1496.4773	-1498.4994	-1499.8015	-1501.1736	-1501.2962	-1502.8215	-1504.4869	-1506.3799	-1509.4612	-1510.5204	-1512.8948	-1513.4769	-1515.0963	-1516.5998	-1518.2520	-1520.9766	-1521.5259	-1523.1234	-1524.2811	-1525.0821	-1526.4104	-1528.1765	-1530.6953	-1533.4681	-1533.1223	-1537.0439	-1536.6566	-1538.3745	-1539.1229	-1540.9131	-1542.2764	-1544.3445	-1544.2219	-1549.1875	-1549.1087	-1550.6252	-1551.8573	-1553.7569	-1554.0195	-1556.9366	-1557.4225	-1557.8952	-1560.6788	-1562.3530	-1565.7647	-1565.1344	-1567.1631	-1567.3228	-1569.3887	-1570.4173	-1571.2248	-1573.3257	-1573.8509	-1576.5667	-1578.7879	-1579.8625	-1581.4556	-1580.7072	-1583.9504	-1583.6747	-1582.7906	-1586.2132	-1588.0187	-1590.1808	-1591.2116	-1593.0367	-1594.5161	-1596.1136	-1597.3566	-1595.7788	-1598.4705	-1599.6020	-1601.4161	-1601.4752	-1603.9109	-1607.2505	-1607.5306	-1607.1782	-1609.0625	-1610.5528	-1612.8637	-1612.8550	-1614.5970	-1615.9341	-1615.4877	-1618.5492	-1618.6346	-1621.1644
-1399.9288	-1411.7879	-1415.1865	-1420.1629	-1424.4063	-1426.2183	-1429.4440	-1431.4880	-1433.3284	-1436.4031	-1438.5150	-1441.2527	-1443.7496	-1445.7674	-1448.5904	-1449.4614	-1452.0372	-1454.3897	-1455.9282	-1458.4624	-1458.7709	-1460.5238	-1461.8697	-1464.8328	-1465.5681	-1467.3780	-1469.5379	-1472.5733	-1473.8622	-1476.6656	-1478.2522	-1479.0531	-1480.4406	-1483.5131	-1484.1587	-1486.2727	-1487.7433	-1490.0959	-1491.4330	-1494.4377	-1495.5450	-1498.0945	-1498.7314	-1500.3968	-1500.4274	-1502.3466	-1504.3578	-1505.9509	-1508.4436	-1510.4656	-1512.7482	-1513.0983	-1515.0394	-1515.6697	-1517.5058	-1520.8081	-1520.5827	-1521.5828	-1524.5875	-1524.2176	-1525.5154	-1528.3122	-1530.8201	-1531.7764	-1532.6496	-1536.9017	-1536.0220	-1537.5889	-1538.3548	-1540.1165	-1541.9263	-1543.7208	-1543.0993	-1547.6315	-1548.9817	-1550.0081	-1551.0848	-1552.4548	-1553.7678	-1556.5449	-1556.8841	-1556.9651	-1560.1974	-1562.2982	-1563.5828	-1564.3532	-1566.0317	-1567.5482	-1568.5396	-1569.8548	-1570.4895	-1573.1396	-1573.5095	-1576.2384	-1577.0197	-1579.5561	-1580.8844	-1580.1010	-1583.8235	-1583.4668	-1580.9435	-1585.4626	-1588.1806	-1588.9881	-1591.1831	-1592.1810	-1593.8617	-1595.8401	-1596.9277	-1595.7219	-1598.0241	-1599.1752	-1600.1950	-1601.8604	-1603.1406	-1605.5916	-1607.4584	-1606.8193	-1608.0273	-1610.3252	-1611.6689	-1612.3298	-1614.1527	-1614.5204	-1615.9035	-1618.2188	-1619.1401	-1620.2868
-1400.3162	-1411.5012	-1415.1055	-1420.1498	-1423.6228	-1425.1766	-1429.1288	-1430.2077	-1431.9541	-1435.5694	-1437.8147	-1439.8214	-1443.7628	-1445.9315	-1448.2994	-1449.5949	-1450.8423	-1453.2933	-1455.4839	-1456.6635	-1458.5411	-1459.8761	-1461.8063	-1464.0341	-1465.2180	-1468.5969	-1469.9209	-1471.8029	-1473.3633	-1475.5867	-1477.9414	-1478.5170	-1480.1517	-1482.1870	-1484.0515	-1485.5549	-1487.1765	-1488.6953	-1491.0982	-1493.9519	-1494.8075	-1497.9895	-1498.0661	-1500.1954	-1500.4712	-1502.2175	-1503.8282	-1505.3469	-1507.4259	-1509.5706	-1511.9209	-1512.2186	-1513.4791	-1515.7003	-1517.7925	-1519.6329	-1519.8911	-1521.9701	-1523.4714	-1522.9243	-1525.7408	-1528.1371	-1530.0804	-1530.6428	-1532.0128	-1536.7135	-1535.6258	-1537.1752	-1537.2759	-1539.9042	-1540.9743	-1542.8936	-1542.6813	-1546.6533	-1548.0976	-1549.1721	-1550.8353	-1551.2686	-1552.8640	-1555.8971	-1555.2800	-1556.3589	-1559.7947	-1561.2653	-1562.9504	-1564.4473	-1565.3095	-1567.2878	-1568.3186	-1569.5419	-1569.1852	-1572.3059	-1573.7349	-1575.2930	-1577.3392	-1579.4598	-1579.7508	-1579.7771	-1582.9591	-1583.9942	-1579.4160	-1585.2350	-1587.3381	-1588.4038	-1589.8066	-1592.6187	-1592.9098	-1595.4855	-1596.0261	-1595.6387	-1597.7943	-1598.9717	-1599.6041	-1601.4052	-1602.4447	-1604.0991	-1607.2264	-1607.0185	-1607.8260	-1609.5746	-1610.4105	-1611.9971	-1613.5947	-1613.1439	-1616.0085	-1618.5077	-1618.3501	-1619.8251
-1399.9288	-1410.5536	-1414.7072	-1420.0907	-1422.3951	-1424.9774	-1428.3082	-1429.7197	-1432.5515	-1434.2497	-1438.4821	-1440.3685	-1443.1084	-1444.4718	-1448.1812	-1448.7830	-1450.3083	-1452.7922	-1454.5035	-1456.6394	-1457.9196	-1459.1189	-1461.2767	-1463.9465	-1464.9094	-1467.6603	-1468.6866	-1471.7767	-1473.1357	-1474.8864	-1477.0114	-1478.3288	-1478.8256	-1481.7099	-1483.2615	-1484.4935	-1485.9554	-1489.1461	-1491.4658	-1493.1071	-1494.8382	-1496.8471	-1496.4904	-1499.5017	-1500.3005	-1501.8367	-1502.8718	-1505.0821	-1508.0168	-1510.3081	-1511.2031	-1511.6255	-1512.9933	-1515.4421	-1516.4225	-1519.4338	-1519.5607	-1521.9001	-1522.1693	-1523.2876	-1525.8458	-1528.6886	-1528.9971	-1531.2249	-1531.1593	-1536.4640	-1535.6871	-1536.4421	-1537.4379	-1539.1645	-1540.0114	-1541.9372	-1543.8871	-1547.1391	-1547.6118	-1548.0998	-1550.3998	-1551.1526	-1553.1463	-1554.9846	-1554.7504	-1556.8228	-1559.2170	-1561.2478	-1560.4490	-1564.3072	-1564.2809	-1567.2506	-1567.5504	-1568.2595	-1568.6840	-1571.3408	-1572.4175	-1575.7898	-1576.4069	-1578.6588	-1578.5757	-1579.4773	-1582.4032	-1583.4405	-1579.9040	-1584.5610	-1586.8194	-1587.9136	-1590.1874	-1591.8922	-1592.3255	-1595.5162	-1595.1485	-1595.8204	-1596.7986	-1597.9781	-1599.2737	-1600.4248	-1601.6919	-1603.7621	-1605.9681	-1606.8347	-1606.9485	-1609.0865	-1610.0866	-1610.9051	-1612.4764	-1614.0542	-1614.8902	-1617.4310	-1617.8205	-1618.9191
-1399.1651	-1409.7526	-1414.8341	-1419.2832	-1421.9662	-1424.6010	-1427.1396	-1428.9669	-1432.5668	-1433.8733	-1437.6746	-1439.2109	-1441.6969	-1444.3777	-1447.5750	-1448.3978	-1450.8883	-1452.2122	-1453.8579	-1456.9195	-1457.3594	-1458.2348	-1461.0753	-1463.0077	-1463.5482	-1467.0563	-1468.6604	-1471.9977	-1473.4092	-1474.5012	-1476.4839	-1477.8539	-1478.5236	-1481.0249	-1482.2614	-1484.6139	-1486.7323	-1489.3978	-1491.0478	-1493.0853	-1494.0000	-1495.5910	-1495.6851	-1499.1428	-1500.3114	-1501.7492	-1503.1585	-1504.4716	-1505.8722	-1508.6777	-1511.1419	-1511.9012	-1513.9759	-1515.0810	-1515.0154	-1517.9916	-1519.6504	-1521.5040	-1521.8476	-1522.9090	-1524.3293	-1528.7849	-1528.7892	-1529.9666	-1531.2534	-1535.8381	-1534.8665	-1535.3195	-1536.9870	-1538.1075	-1538.3570	-1541.8738	-1543.7624	-1545.7254	-1546.8699	-1547.2463	-1549.7543	-1549.8921	-1553.1704	-1554.1442	-1554.5710	-1557.5778	-1558.5889	-1561.3047	-1561.1384	-1562.7578	-1563.8345	-1566.7057	-1566.9552	-1567.6051	-1568.4652	-1570.8921	-1572.4853	-1574.4264	-1576.5317	-1578.3897	-1578.3262	-1579.2169	-1581.3506	-1583.0926	-1580.1601	-1584.2349	-1585.7843	-1586.9091	-1589.9576	-1591.2422	-1591.3757	-1594.3607	-1594.5992	-1595.6212	-1596.3631	-1598.0175	-1598.8710	-1599.7114	-1601.4534	-1603.9853	-1606.2044	-1607.3227	-1606.9485	-1608.3972	-1608.9618	-1610.6097	-1613.0498	-1613.5662	-1614.6035	-1615.6211	-1618.6806	-1618.5142
-1398.4517	-1408.9889	-1414.5693	-1417.9176	-1421.7977	-1423.9401	-1426.8135	-1428.7809	-1430.9015	-1433.5079	-1437.8759	-1438.8410	-1441.5612	-1445.0386	-1446.4677	-1448.1024	-1450.0326	-1451.6367	-1452.8907	-1456.0091	-1456.8057	-1458.4339	-1460.0008	-1462.2242	-1463.0755	-1468.1658	-1470.0237	-1471.1114	-1473.4858	-1473.8119	-1476.5036	-1477.0989	-1479.1079	-1479.8257	-1481.8828	-1483.9574	-1485.2792	-1487.8156	-1490.2141	-1492.7285	-1492.4703	-1494.6850	-1495.4203	-1498.3747	-1499.5914	-1501.1736	-1502.3335	-1503.1563	-1506.2223	-1508.1853	-1510.2687	-1511.2425	-1513.5447	-1513.8555	-1515.4312	-1517.5342	-1519.2215	-1520.5652	-1521.9176	-1521.8410	-1525.0427	-1527.8504	-1528.5354	-1529.0672	-1531.1308	-1534.7067	-1533.9079	-1535.7265	-1536.0373	-1538.0966	-1538.1732	-1541.6221	-1542.5194	-1545.8239	-1545.6116	-1546.3294	-1548.5878	-1550.1197	-1552.4548	-1552.6408	-1553.7065	-1555.9650	-1556.9716	-1559.9216	-1560.6832	-1562.1538	-1563.6572	-1565.4955	-1567.0230	-1567.7014	-1567.4498	-1569.6294	-1572.5116	-1574.4636	-1575.8861	-1577.6806	-1577.9082	-1578.4356	-1580.5693	-1582.3507	-1581.4797	-1583.4339	-1584.9264	-1586.1126	-1589.5024	-1590.7060	-1591.1218	-1593.1811	-1594.4526	-1594.9669	-1596.0764	-1597.1903	-1598.5449	-1599.4860	-1601.2236	-1602.1405	-1606.1628	-1606.7449	-1606.6158	-1608.4585	-1607.8982	-1610.5769	-1612.2554	-1612.2313	-1615.0828	-1616.2908	-1617.2099	-1617.6936
-1398.6289	-1407.9165	-1414.5474	-1416.5761	-1420.2220	-1423.3099	-1426.7085	-1427.8289	-1430.7767	-1434.2213	-1437.7206	-1438.9680	-1440.9529	-1444.1239	-1446.0234	-1447.7019	-1449.5380	-1451.3806	-1452.7375	-1454.8099	-1456.3155	-1458.5543	-1460.2372	-1461.1235	-1462.4475	-1468.8420	-1469.0302	-1470.6540	-1472.5229	-1472.9322	-1476.0025	-1477.0573	-1477.9524	-1478.9744	-1481.8237	-1482.6662	-1483.9530	-1487.4698	-1489.5904	-1491.8838	-1492.1836	-1493.7265	-1495.0636	-1497.6021	-1498.8714	-1500.6090	-1501.7973	-1503.1345	-1505.5767	-1507.9358	-1509.7785	-1511.2754	-1512.2251	-1512.9101	-1514.7484	-1516.8055	-1518.0222	-1519.8846	-1520.3288	-1521.5237	-1524.0863	-1526.5636	-1528.1655	-1528.7039	-1531.0346	-1532.9866	-1534.0589	-1534.9693	-1535.6390	-1538.8516	-1538.1469	-1541.6921	-1542.9964	-1545.4825	-1545.0579	-1545.6181	-1548.4587	-1550.3407	-1551.8004	-1552.8312	-1553.3717	-1555.3741	-1556.9038	-1560.0245	-1560.5453	-1562.8957	-1562.6418	-1564.6836	-1565.6750	-1566.9683	-1567.2725	-1569.1961	-1571.6647	-1574.2514	-1574.7503	-1577.3895	-1576.1837	-1578.1249	-1579.5911	-1581.6219	-1582.3769	-1582.0224	-1585.5983	-1586.6400	-1589.3033	-1590.2093	-1590.3515	-1593.1439	-1594.1047	-1594.0937	-1595.4068	-1596.5885	-1598.2320	-1597.8950	-1601.3549	-1602.3046	-1604.6988	-1605.8149	-1606.6596	-1608.2900	-1607.8194	-1610.0932	-1612.1941	-1612.1963	-1615.0193	-1615.2622	-1617.7242	-1617.6914
-1398.2985	-1408.1026	-1414.4643	-1415.2828	-1419.7559	-1422.9203	-1425.3298	-1426.8266	-1430.1093	-1433.3043	-1437.1516	-1439.0730	-1440.6749	-1443.4936	-1444.8745	-1447.0366	-1448.6232	-1450.9014	-1451.6564	-1454.5342	-1456.4643	-1458.1713	-1460.7230	-1460.3444	-1462.7385	-1468.3496	-1468.8617	-1470.8160	-1473.0503	-1473.0919	-1475.5823	-1476.4577	-1477.4687	-1479.2414	-1481.2919	-1481.4845	-1484.5373	-1487.7937	-1489.1877	-1491.6168	-1492.2077	-1492.7658	-1495.4466	-1496.4357	-1497.5124	-1500.4405	-1501.5654	-1503.1104	-1504.5766	-1507.3931	-1509.3714	-1511.0434	-1511.1681	-1512.8313	-1513.5819	-1514.7177	-1517.9281	-1519.8999	-1519.4294	-1521.6463	-1522.7514	-1525.5022	-1528.1546	-1527.9642	-1531.3256	-1532.1003	-1533.6038	-1533.2536	-1535.8425	-1537.2540	-1537.6064	-1540.7971	-1543.6223	-1544.0753	-1544.9901	-1546.2025	-1548.1348	-1549.3581	-1551.6954	-1552.3913	-1552.5839	-1555.5010	-1556.1751	-1560.0223	-1560.1448	-1562.0356	-1562.0137	-1564.4670	-1565.5655	-1566.7385	-1567.0996	-1569.4981	-1571.1526	-1573.6780	-1574.5796	-1576.7812	-1575.5381	-1578.0308	-1578.6763	-1580.8035	-1582.4645	-1581.5979	-1585.2897	-1585.8325	-1588.0318	-1589.2376	-1590.3690	-1592.2314	-1593.5860	-1594.3257	-1595.2164	-1596.4944	-1597.8994	-1597.7549	-1600.6218	-1602.7401	-1604.2064	-1605.1583	-1606.6683	-1607.0469	-1607.3774	-1609.7299	-1611.4435	-1611.9709	-1613.9098	-1614.9209	-1616.4899	-1617.4638
-1397.0795	-1407.6124	-1413.2366	-1414.9873	-1419.7143	-1422.1631	-1424.4150	-1426.9558	-1429.5074	-1433.5713	-1437.1144	-1438.1933	-1439.5610	-1443.8678	-1443.8897	-1446.6953	-1448.2600	-1449.5621	-1450.5556	-1454.2146	-1455.5824	-1458.0947	-1459.5215	-1459.9352	-1462.0579	-1467.9907	-1468.4897	-1468.8945	-1471.4221	-1473.0613	-1473.9432	-1475.6151	-1477.1033	-1478.6767	-1480.6157	-1481.6968	-1484.0843	-1486.1611	-1489.1877	-1491.2404	-1491.5534	-1492.3062	-1494.8951	-1495.3590	-1497.1907	-1499.3923	-1501.6945	-1502.5326	-1504.5066	-1507.6404	-1509.0979	-1510.0192	-1510.3365	-1513.2406	-1513.4309	-1514.7987	-1517.0440	-1519.2302	-1519.1777	-1520.1691	-1522.2218	-1524.7319	-1527.5790	-1527.1764	-1530.6166	-1531.8246	-1532.3104	-1533.0829	-1534.4988	-1536.6829	-1539.2127	-1540.4644	-1543.0643	-1543.8674	-1544.8128	-1545.3949	-1546.9947	-1549.1262	-1550.7478	-1551.2467	-1552.7677	-1553.4833	-1555.1290	-1559.7159	-1559.6853	-1560.9524	-1561.9875	-1564.6311	-1564.7799	-1566.1192	-1566.9771	-1568.0954	-1571.2882	-1573.4351	-1573.8706	-1576.3172	-1575.3959	-1578.0308	-1578.3437	-1579.4620	-1582.5367	-1581.2280	-1583.8738	-1585.0731	-1587.6838	-1588.0843	-1589.8110	-1590.8767	-1592.6931	-1593.8486	-1595.4221	-1595.5512	-1597.1466	-1597.0634	-1601.1514	-1600.8537	-1603.0312	-1604.9067	-1605.6398	-1606.2394	-1607.5940	-1609.5133	-1610.5375	-1611.7717	-1613.7741	-1613.5531	-1615.8531	-1616.6672
-1397.4406	-1406.4175	-1412.2168	-1414.0244	-1419.3094	-1422.2222	-1423.7235	-1426.8179	-1429.9736	-1434.2957	-1435.9742	-1438.0554	-1439.3159	-1442.3928	-1443.2594	-1446.1854	-1447.8113	-1449.1375	-1450.2558	-1453.4137	-1455.1710	-1457.5060	-1458.8694	-1458.9898	-1463.3600	-1467.3429	-1467.6821	-1467.9141	-1470.7919	-1472.3654	-1473.9673	-1474.9214	-1476.7378	-1478.2500	-1480.0839	-1481.5414	-1484.0252	-1486.3274	-1488.1504	-1490.2053	-1490.6649	-1492.2274	-1494.5362	-1494.2758	-1497.1229	-1499.3332	-1501.0992	-1501.5872	-1503.4343	-1506.6753	-1508.8572	-1509.5356	-1509.7435	-1512.1091	-1513.4441	-1514.5186	-1515.7529	-1518.9304	-1518.9414	-1519.1318	-1520.7118	-1524.9748	-1527.0998	-1526.5461	-1530.8463	-1530.9164	-1532.1922	-1533.0413	-1533.6563	-1536.9236	-1538.5080	-1539.4381	-1541.5827	-1544.1060	-1543.8937	-1544.5546	-1546.5745	-1548.8176	-1550.1504	-1550.9644	-1552.9843	-1553.2623	-1555.8468	-1559.9435	-1560.1361	-1560.7948	-1561.7949	-1563.2086	-1564.3378	-1564.8456	-1567.2834	-1567.6051	-1571.1307	-1572.5816	-1573.2819	-1575.4309	-1574.9473	-1577.0088	-1577.8425	-1578.5669	-1582.3769	-1580.9807	-1583.7907	-1584.7667	-1587.8370	-1588.6402	-1589.1763	-1590.1961	-1591.7062	-1591.2291	-1595.1442	-1595.1070	-1596.8117	-1597.8819	-1600.2716	-1601.3833	-1602.6154	-1603.4098	-1606.2350	-1606.7493	-1607.6947	-1609.3119	-1610.4915	-1610.4740	-1613.0563	-1613.5837	-1615.7349	-1616.5819
-1397.2021	-1406.1483	-1412.0308	-1414.4818	-1418.6135	-1421.0711	-1424.3887	-1426.9754	-1429.8904	-1434.2169	-1435.0244	-1437.8125	-1439.5523	-1441.8632	-1443.4236	-1445.6470	-1446.7346	-1449.0741	-1450.6191	-1452.4749	-1455.0025	-1456.9239	-1458.9416	-1459.1670	-1462.4321	-1464.6490	-1467.2839	-1467.5465	-1469.6977	-1471.6891	-1473.4639	-1474.2408	-1475.4620	-1476.9173	-1479.9548	-1480.7032	-1484.1806	-1486.4412	-1487.5004	-1489.5181	-1490.6889	-1492.1267	-1493.7024	-1494.0919	-1496.1512	-1499.2281	-1498.7336	-1500.3771	-1504.1915	-1505.3272	-1508.1984	-1509.2117	-1509.2095	-1512.2339	-1513.3281	-1513.3959	-1515.8141	-1517.6787	-1518.6284	-1518.7269	-1521.7119	-1524.1410	-1527.7694	-1527.1392	-1530.1067	-1529.8222	-1531.7502	-1532.4045	-1534.4025	-1536.0592	-1538.3876	-1538.1447	-1541.5565	-1543.8018	-1543.2831	-1544.8062	-1545.6597	-1548.5659	-1549.0146	-1551.1220	-1551.6910	-1553.8553	-1555.2319	-1558.8931	-1558.8209	-1560.2017	-1561.3156	-1562.1823	-1564.3860	-1564.5239	-1566.7604	-1567.6336	-1570.6864	-1572.2161	-1572.9186	-1575.0173	-1574.6934	-1576.4266	-1577.1051	-1577.6325	-1581.5453	-1580.6744	-1583.5587	-1584.7142	-1586.9157	-1587.6160	-1588.6599	-1589.9751	-1590.5966	-1592.6756	-1593.5247	-1594.6736	-1597.7068	-1597.1334	-1598.4902	-1601.0682	-1602.0158	-1602.8124	-1605.9943	-1605.9593	-1607.5459	-1608.3666	-1609.6512	-1610.4346	-1611.7717	-1613.7829	-1614.4285	-1616.7044
-1396.7403	-1405.9426	-1411.1466	-1414.5015	-1417.8848	-1421.1915	-1423.9883	-1426.8485	-1428.9341	-1432.3896	-1434.6152	-1436.4469	-1438.2414	-1441.1958	-1443.6074	-1444.3318	-1446.7193	-1448.8683	-1450.0676	-1451.1027	-1454.0505	-1456.6854	-1458.6615	-1459.8783	-1460.6770	-1462.2702	-1465.6075	-1465.8220	-1468.5466	-1471.7088	-1472.6061	-1473.8294	-1474.5888	-1477.1711	-1479.5784	-1480.0270	-1482.7713	-1485.3186	-1486.9730	-1488.6472	-1490.3388	-1491.5030	-1493.4091	-1494.1488	-1495.6216	-1497.6984	-1498.9349	-1500.5368	-1502.8850	-1505.0559	-1507.3931	-1508.5355	-1509.0869	-1511.9866	-1512.6869	-1513.2471	-1515.6456	-1516.2409	-1518.0332	-1518.8363	-1521.1013	-1523.2569	-1526.1741	-1526.7496	-1529.5092	-1529.4676	-1531.0739	-1531.2972	-1533.8904	-1535.4201	-1537.9456	-1538.1360	-1541.3289	-1542.7820	-1542.6900	-1545.1783	-1545.4890	-1547.4236	-1548.3405	-1550.9579	-1552.2928	-1552.3782	-1553.3082	-1557.8207	-1559.8625	-1559.7750	-1560.9261	-1562.4755	-1562.9526	-1563.7492	-1565.6772	-1567.5679	-1568.7825	-1572.4853	-1572.1811	-1574.2601	-1574.3980	-1576.8009	-1576.1290	-1577.1860	-1579.9544	-1581.2762	-1582.3135	-1584.4691	-1585.9988	-1587.6313	-1588.0406	-1589.7213	-1589.4827	-1590.2640	-1592.9579	-1594.9275	-1596.6520	-1596.7964	-1599.4203	-1600.8318	-1600.6852	-1602.9699	-1604.7141	-1605.2065	-1607.0272	-1607.7801	-1609.4389	-1609.8612	-1611.1502	-1612.9075	-1614.1090	-1615.7809
-1395.2434	-1405.0235	-1409.7964	-1413.8581	-1417.5040	-1421.4409	-1422.8612	-1426.9186	-1428.1375	-1432.4202	-1434.2607	-1436.0836	-1438.6463	-1439.9615	-1443.0056	-1443.2222	-1446.2641	-1448.7808	-1449.8203	-1450.6125	-1453.2474	-1455.7203	-1457.3156	-1458.3989	-1461.4627	-1462.0054	-1465.1983	-1463.3360	-1468.1592	-1471.2208	-1472.7330	-1473.8600	-1474.5406	-1476.9566	-1478.7030	-1479.7272	-1482.7931	-1485.3339	-1486.3274	-1487.7543	-1489.4547	-1491.7284	-1493.3282	-1493.4551	-1495.2058	-1497.0594	-1498.6832	-1499.8650	-1502.9550	-1504.6357	-1506.3536	-1507.8374	-1508.5989	-1510.9952	-1511.9713	-1513.0852	-1514.2604	-1516.3394	-1518.1229	-1518.6109	-1520.5542	-1523.3073	-1524.8698	-1526.3207	-1529.1328	-1528.9249	-1530.1789	-1531.6298	-1532.9735	-1534.8074	-1537.3065	-1538.0287	-1539.1601	-1542.3049	-1543.2722	-1544.1607	-1544.7865	-1546.9290	-1547.5243	-1549.7433	-1551.7698	-1551.9098	-1553.6825	-1556.0634	-1558.8909	-1558.3000	-1561.4601	-1561.5848	-1562.6987	-1563.3837	-1565.3905	-1567.6445	-1568.3251	-1571.5377	-1572.0367	-1573.5554	-1573.4001	-1575.8927	-1576.0130	-1577.0503	-1578.8930	-1580.9785	-1582.6768	-1584.1955	-1585.0052	-1586.9070	-1587.8808	-1589.3142	-1589.2114	-1590.8877	-1592.4962	-1594.5774	-1595.1245	-1596.4922	-1598.4005	-1600.5736	-1600.0943	-1602.2674	-1603.9460	-1605.4450	-1606.3051	-1606.6968	-1608.7167	-1608.4366	-1609.6271	-1612.6361	-1613.4962	-1614.9953
-1394.9458	-1404.3932	-1409.1289	-1413.7246	-1416.6199	-1419.6246	-1422.2747	-1425.0475	-1428.5883	-1431.5908	-1432.6763	-1435.2367	-1437.9810	-1440.1672	-1442.3622	-1442.7780	-1446.0584	-1448.1352	-1449.3148	-1449.9057	-1452.9891	-1454.8558	-1456.2105	-1457.4601	-1461.2657	-1460.9046	-1464.5812	-1463.0536	-1468.5378	-1470.6234	-1471.9605	-1473.0525	-1473.4027	-1476.0528	-1478.2872	-1479.4186	-1480.9943	-1485.1326	-1485.4937	-1487.0715	-1488.6121	-1491.8160	-1492.5403	-1493.4836	-1495.3021	-1496.7443	-1497.9085	-1499.9481	-1504.2265	-1503.7691	-1505.3207	-1507.3209	-1507.5966	-1509.8047	-1512.9079	-1512.3280	-1513.6848	-1515.5734	-1518.0901	-1517.5714	-1520.6571	-1523.0950	-1524.5306	-1525.6379	-1528.3231	-1528.5047	-1529.9185	-1532.3892	-1531.8114	-1535.2538	-1537.1512	-1537.4291	-1538.7706	-1542.2195	-1542.3684	-1543.8915	-1544.2438	-1546.1674	-1546.4979	-1549.2706	-1551.6735	-1551.7610	-1555.1553	-1554.3959	-1558.7618	-1557.9477	-1561.3332	-1560.6219	-1562.4164	-1563.2174	-1564.7471	-1567.7452	-1568.5287	-1570.6120	-1571.7872	-1572.9974	-1573.2206	-1575.2143	-1576.3019	-1575.9343	-1577.6762	-1580.3570	-1583.0794	-1584.2130	-1584.7601	-1585.9375	-1587.3053	-1588.6555	-1589.1107	-1588.9291	-1592.2795	-1593.0017	-1594.9866	-1596.1377	-1597.5908	-1599.3525	-1600.0374	-1601.7182	-1602.9852	-1603.9131	-1605.9724	-1606.1913	-1607.7822	-1607.7100	-1609.4783	-1611.4785	-1612.8528	-1614.7720
-1395.1756	-1403.5769	-1408.5009	-1413.7662	-1416.2172	-1418.6704	-1422.0515	-1424.7936	-1428.4461	-1430.3544	-1433.0789	-1435.6066	-1437.5170	-1439.4210	-1441.8895	-1443.0143	-1445.7542	-1447.6056	-1448.0455	-1449.8794	-1451.5032	-1453.6960	-1454.8537	-1457.9787	-1461.0337	-1460.6223	-1463.0580	-1463.9947	-1468.2314	-1470.4242	-1471.5425	-1472.5360	-1473.3611	-1475.7771	-1477.9392	-1479.4033	-1481.1431	-1484.3294	-1485.0144	-1486.4281	-1488.0891	-1490.6080	-1491.1704	-1493.3829	-1494.6872	-1495.4400	-1497.1973	-1499.3397	-1502.1059	-1503.1542	-1505.0668	-1506.2223	-1506.6950	-1509.2401	-1512.0129	-1511.8071	-1513.9408	-1514.2428	-1516.7639	-1517.8887	-1519.8977	-1523.0731	-1524.2658	-1525.1477	-1526.9291	-1528.4369	-1529.3539	-1529.9360	-1531.2600	-1534.3062	-1535.8534	-1536.3174	-1538.4205	-1541.2216	-1541.6965	-1544.0644	-1544.3248	-1544.8544	-1546.7671	-1549.0058	-1550.7544	-1551.5094	-1553.5030	-1553.7634	-1557.5450	-1557.7792	-1560.8211	-1559.7072	-1561.8890	-1562.2304	-1563.4997	-1566.2177	-1567.7343	-1569.7804	-1571.4261	-1571.6756	-1573.1528	-1575.8248	-1575.9518	-1575.6366	-1577.8863	-1580.0638	-1581.7861	-1583.1560	-1584.3531	-1586.1804	-1586.7538	-1587.4497	-1588.8765	-1588.9006	-1590.7914	-1592.2970	-1594.5226	-1596.4988	-1597.5711	-1598.5559	-1599.9696	-1601.3417	-1602.9480	-1603.0334	-1605.2809	-1605.1321	-1606.7252	-1606.9835	-1609.5045	-1611.7936	-1612.3254	-1613.8792
-1393.8122	-1403.9730	-1407.9516	-1413.3548	-1415.9940	-1418.5369	-1421.4760	-1424.7739	-1429.0741	-1427.7852	-1433.5319	-1435.1382	-1436.5695	-1438.2458	-1441.3511	-1441.8545	-1445.6164	-1446.3604	-1448.4132	-1450.5797	-1451.2056	-1452.5274	-1455.0966	-1457.8452	-1459.5938	-1460.7821	-1463.0055	-1464.4674	-1467.7281	-1469.4044	-1470.4527	-1471.8927	-1473.7419	-1475.2825	-1476.7684	-1478.6724	-1481.5830	-1483.0820	-1484.8984	-1486.1064	-1487.1218	-1490.2972	-1490.6583	-1492.6629	-1494.2604	-1494.4880	-1496.7027	-1500.1889	-1501.9440	-1503.6159	-1504.2659	-1505.5592	-1507.0058	-1508.5464	-1510.2818	-1512.0632	-1512.8116	-1514.4814	-1515.1926	-1516.8033	-1519.3637	-1522.1365	-1522.7667	-1523.8828	-1526.8240	-1528.3297	-1528.4347	-1529.4326	-1530.7873	-1534.2997	-1534.2362	-1536.6829	-1538.2738	-1540.1974	-1542.0116	-1543.0227	-1542.6704	-1545.0229	-1546.3622	-1548.0976	-1549.1699	-1551.1308	-1552.9625	-1553.1266	-1556.3479	-1556.9870	-1559.2979	-1559.4358	-1561.2916	-1562.0816	-1563.2808	-1566.1739	-1566.8020	-1569.7542	-1570.6230	-1571.6581	-1572.5247	-1575.5360	-1575.1420	-1575.7679	-1577.5230	-1579.5692	-1580.6612	-1583.0116	-1583.2239	-1584.8805	-1585.6092	-1586.9814	-1588.2660	-1589.1129	-1590.1392	-1592.0322	-1593.8661	-1596.2405	-1597.3807	-1598.0701	-1599.3153	-1600.6480	-1601.4512	-1603.0815	-1603.9832	-1604.1451	-1605.6420	-1607.9420	-1607.0754	-1611.1809	-1611.5004	-1613.5246
-1393.1338	-1403.2333	-1406.6604	-1412.3525	-1414.9107	-1417.5718	-1421.1958	-1423.9401	-1427.4066	-1428.4789	-1432.1686	-1434.0659	-1435.9764	-1437.7074	-1440.4036	-1441.7648	-1445.5989	-1444.7804	-1448.5116	-1449.5161	-1450.4440	-1451.9037	-1454.9412	-1456.5803	-1460.3553	-1461.2679	-1463.0383	-1464.5024	-1467.5071	-1468.3015	-1469.3716	-1471.7526	-1473.1554	-1475.0549	-1476.5146	-1480.3881	-1480.1123	-1482.3927	-1484.7562	-1485.6293	-1487.7083	-1490.0105	-1490.4110	-1492.2996	-1494.0525	-1494.5187	-1496.6436	-1499.4820	-1501.2874	-1502.3816	-1503.2504	-1505.4192	-1506.1173	-1507.8746	-1510.3694	-1512.0785	-1512.4177	-1513.7920	-1514.7615	-1517.9238	-1520.3507	-1522.5785	-1521.8826	-1523.5327	-1526.5505	-1528.0145	-1527.7279	-1530.1264	-1530.2752	-1532.9035	-1535.3676	-1536.0460	-1538.0594	-1538.9807	-1541.0750	-1542.1386	-1543.1978	-1544.4189	-1545.6969	-1546.9947	-1549.7214	-1550.2926	-1552.2753	-1552.7349	-1556.3873	-1556.4508	-1558.7749	-1558.6217	-1560.8692	-1561.6592	-1563.9549	-1565.7297	-1566.8545	-1569.1108	-1569.7739	-1570.9928	-1572.0257	-1574.3849	-1575.0173	-1575.3390	-1576.3873	-1578.2999	-1580.9063	-1582.9788	-1582.2347	-1584.7601	-1585.3204	-1587.1149	-1588.2682	-1588.0252	-1590.2399	-1591.4917	-1594.7765	-1594.9253	-1595.9867	-1596.7964	-1599.6764	-1599.9827	-1600.4445	-1602.9896	-1602.8321	-1604.4580	-1605.2656	-1607.2154	-1607.1498	-1611.4413	-1610.9620	-1612.9929
-1394.0464	-1402.6140	-1405.9382	-1412.0877	-1414.4074	-1417.8147	-1420.0272	-1422.5636	-1425.8003	-1428.9625	-1431.8797	-1434.2585	-1435.3768	-1437.6440	-1439.5435	-1442.2178	-1443.6380	-1444.9336	-1447.9230	-1449.6737	-1449.5117	-1451.8533	-1453.8689	-1456.6832	-1460.0993	-1461.5283	-1462.8567	-1464.6424	-1467.1350	-1467.9163	-1469.2097	-1471.1420	-1472.5098	-1475.0527	-1476.3045	-1478.6264	-1480.1342	-1482.6028	-1484.2681	-1484.9728	-1487.1262	-1488.9098	-1490.2206	-1491.3477	-1493.4945	-1493.5404	-1496.3941	-1498.5169	-1501.3071	-1501.8783	-1503.5218	-1504.9727	-1506.2508	-1507.2509	-1509.8792	-1510.6451	-1512.5162	-1513.3478	-1514.8250	-1518.6941	-1520.1034	-1521.5631	-1521.3267	-1524.0360	-1525.4672	-1527.9861	-1527.7454	-1528.8002	-1530.1089	-1532.1966	-1533.8335	-1535.0197	-1537.9784	-1538.4577	-1540.9612	-1541.1494	-1543.4472	-1543.9396	-1545.1958	-1546.6204	-1548.1808	-1549.2203	-1551.8048	-1552.1768	-1555.2100	-1555.9693	-1557.6128	-1558.1074	-1560.1230	-1561.1056	-1562.2523	-1565.2263	-1566.6510	-1567.9028	-1568.8919	-1570.6208	-1570.7543	-1573.6692	-1574.3367	-1575.0895	-1576.9978	-1577.9367	-1580.9632	-1582.0684	-1582.3113	-1583.5368	-1584.4603	-1586.5546	-1588.0756	-1589.0407	-1589.3646	-1590.4850	-1593.1352	-1594.6014	-1596.3981	-1596.0852	-1599.4006	-1599.3744	-1600.8428	-1601.5978	-1602.7095	-1604.7513	-1604.9876	-1606.1913	-1607.7582	-1610.7454	-1610.8679	-1612.9972
-1393.6371	-1402.8197	-1407.0893	-1410.8074	-1414.4074	-1417.3114	-1420.3971	-1421.9093	-1426.5334	-1428.2163	-1431.0087	-1432.9498	-1433.6326	-1437.1669	-1439.4844	-1440.0665	-1443.5089	-1444.3252	-1447.2839	-1449.9932	-1450.4987	-1451.0611	-1453.8295	-1456.4118	-1458.0422	-1461.8259	-1462.4190	-1465.0933	-1466.2969	-1467.0191	-1468.1089	-1469.8180	-1472.2406	-1474.3918	-1474.6260	-1477.3724	-1479.9373	-1482.5371	-1484.1500	-1484.9465	-1486.2465	-1488.1745	-1489.2271	-1490.7240	-1492.7242	-1492.9846	-1495.6282	-1499.0662	-1499.7927	-1501.2065	-1502.7274	-1503.5021	-1506.3799	-1505.9991	-1508.5902	-1510.6932	-1512.6059	-1513.2537	-1513.4747	-1517.3416	-1518.9611	-1519.2302	-1521.1364	-1522.5019	-1524.5196	-1527.0210	-1527.2946	-1528.0889	-1529.0037	-1532.8269	-1532.2688	-1535.8184	-1537.8033	-1538.3592	-1539.3593	-1541.3967	-1541.5696	-1543.1277	-1545.1061	-1546.8371	-1546.1937	-1549.7149	-1551.5488	-1552.2425	-1555.3260	-1555.1181	-1555.9343	-1558.3482	-1559.8013	-1560.7795	-1561.9437	-1564.7493	-1565.4211	-1567.7824	-1568.8897	-1569.5528	-1570.7805	-1573.6627	-1573.8049	-1574.1857	-1576.8709	-1577.9345	-1580.1732	-1581.2805	-1581.4119	-1583.4558	-1584.3859	-1586.1345	-1588.4213	-1587.4015	-1588.9575	-1590.2596	-1593.3059	-1593.9558	-1596.8533	-1595.3258	-1598.6609	-1598.9214	-1599.6129	-1600.7224	-1601.5890	-1604.2239	-1604.9789	-1607.0688	-1607.0623	-1609.5899	-1610.6644	-1612.4567
-1393.2082	-1402.0122	-1406.1002	-1409.8642	-1414.9545	-1416.9569	-1419.9331	-1422.4804	-1426.3890	-1428.0697	-1430.3128	-1431.3851	-1433.8077	-1437.1275	-1438.7010	-1439.6879	-1443.4870	-1443.4914	-1445.9840	-1448.7874	-1449.4702	-1450.5994	-1453.9126	-1455.6524	-1458.3420	-1462.5700	-1461.8872	-1464.4914	-1464.9795	-1467.1000	-1468.0717	-1468.8923	-1472.5185	-1474.7113	-1474.8208	-1477.9020	-1479.8738	-1481.4495	-1483.3271	-1485.4346	-1486.0298	-1487.7849	-1488.8616	-1490.1922	-1490.7393	-1492.9780	-1496.4510	-1497.7597	-1498.3571	-1501.3487	-1501.8367	-1502.9047	-1505.1850	-1506.2398	-1507.9380	-1510.2446	-1511.4548	-1512.6081	-1513.1793	-1515.7529	-1518.6788	-1520.2960	-1521.3158	-1521.6134	-1524.2089	-1526.8087	-1526.5089	-1526.6818	-1528.8724	-1530.5772	-1533.6081	-1535.1488	-1536.9958	-1537.1555	-1539.2411	-1539.9655	-1541.5236	-1543.2306	-1544.7909	-1545.5634	-1545.8764	-1549.7783	-1550.9579	-1553.1769	-1554.3499	-1554.7220	-1555.7833	-1558.2803	-1558.6151	-1560.0310	-1562.4361	-1563.2940	-1564.1365	-1567.0208	-1567.2506	-1569.3449	-1569.5310	-1572.6604	-1573.2885	-1573.1309	-1576.6061	-1576.9344	-1579.5451	-1579.8143	-1580.7313	-1582.7796	-1584.4341	-1585.5020	-1588.0821	-1587.9246	-1589.1129	-1589.8110	-1591.6317	-1593.3015	-1595.1573	-1595.7503	-1598.1707	-1599.0155	-1598.8360	-1600.7815	-1601.2104	-1604.1889	-1604.9198	-1606.7055	-1608.5066	-1610.1173	-1610.5550	-1611.2662
-1392.8471	-1401.4914	-1404.8396	-1408.8182	-1414.5037	-1416.6024	-1418.6989	-1421.1958	-1425.8003	-1428.7065	-1430.0130	-1430.5841	-1434.2694	-1436.7358	-1437.2019	-1439.8696	-1441.8085	-1442.3512	-1445.4829	-1448.4350	-1449.6649	-1450.3258	-1453.2123	-1454.5429	-1457.5739	-1462.0470	-1461.3029	-1463.7539	-1464.3864	-1466.5770	-1467.2554	-1468.6954	-1471.8773	-1474.2233	-1473.8557	-1476.2585	-1479.2851	-1480.6069	-1482.3861	-1484.2550	-1485.7694	-1486.3843	-1488.6690	-1488.2904	-1490.6561	-1492.8927	-1495.8908	-1497.0747	-1498.3550	-1501.2305	-1501.7273	-1502.7777	-1505.1981	-1505.4892	-1507.1152	-1509.2161	-1509.6603	-1513.4375	-1513.4003	-1516.3612	-1517.4139	-1520.2107	-1519.9305	-1521.8323	-1523.5349	-1526.1041	-1525.8590	-1526.4761	-1528.0430	-1529.8244	-1532.8860	-1534.2231	-1536.1314	-1536.5800	-1538.9347	-1538.5364	-1541.2588	-1542.7054	-1543.6989	-1545.2921	-1546.0033	-1548.9139	-1550.8769	-1553.6584	-1554.0260	-1554.5403	-1554.8817	-1558.0155	-1558.5407	-1560.0617	-1561.3747	-1563.1627	-1563.3771	-1567.1237	-1565.8675	-1568.7913	-1568.0122	-1572.5313	-1571.4371	-1572.2577	-1576.2275	-1577.5012	-1578.7048	-1580.6612	-1581.3615	-1582.3069	-1583.2085	-1585.2919	-1587.2746	-1587.4256	-1588.8743	-1589.3580	-1589.9314	-1593.1308	-1593.8639	-1595.9758	-1597.7834	-1597.6608	-1598.9082	-1599.6961	-1601.1601	-1603.9591	-1603.7337	-1606.2569	-1608.5723	-1608.8436	-1610.0232	-1610.6184
-1392.6677	-1401.0974	-1405.5049	-1408.2711	-1413.5605	-1416.3726	-1418.7776	-1420.7450	-1424.5091	-1428.1463	-1429.2580	-1430.2537	-1432.4180	-1435.7729	-1437.3398	-1439.0358	-1440.5961	-1442.3731	-1444.5703	-1447.7916	-1449.1069	-1449.6452	-1452.7922	-1455.0222	-1456.8648	-1460.3816	-1459.9395	-1462.2833	-1463.3381	-1465.8701	-1466.8921	-1468.3649	-1470.4177	-1473.0678	-1474.0395	-1476.4292	-1479.0685	-1480.2896	-1481.5458	-1483.4562	-1485.0779	-1486.0998	-1487.0015	-1488.1679	-1490.6124	-1492.3127	-1494.6128	-1496.5517	-1497.9348	-1500.0772	-1500.9351	-1501.8717	-1505.0121	-1505.0690	-1506.7038	-1508.3713	-1510.4766	-1512.3849	-1511.9538	-1515.2014	-1517.5649	-1519.0420	-1518.6656	-1521.5325	-1523.3423	-1525.1302	-1525.3250	-1526.3907	-1527.6731	-1529.6734	-1532.9013	-1533.4462	-1535.8469	-1536.7222	-1537.6414	-1538.8341	-1541.0487	-1541.5740	-1543.8762	-1545.5109	-1544.8631	-1548.3121	-1551.1417	-1552.7349	-1553.3892	-1554.2558	-1554.1945	-1556.8710	-1558.2759	-1559.4599	-1560.1295	-1562.8957	-1562.9898	-1565.7756	-1566.1083	-1568.1676	-1568.3558	-1571.6822	-1571.3451	-1571.7609	-1575.5535	-1576.3128	-1577.5340	-1579.7443	-1581.4578	-1581.2762	-1583.2939	-1585.1190	-1586.0382	-1586.8895	-1588.1390	-1589.6337	-1591.7587	-1591.3888	-1593.6735	-1595.7613	-1596.6301	-1597.7309	-1598.6981	-1599.0308	-1600.2957	-1602.7401	-1604.5565	-1605.9046	-1607.6925	-1607.1389	-1609.8131	-1610.4455
-1393.5277	-1400.1477	-1405.0913	-1408.3717	-1413.9369	-1415.8430	-1417.7185	-1421.5941	-1423.8482	-1427.1286	-1428.7940	-1429.2755	-1431.8381	-1435.5759	-1437.0465	-1437.9897	-1440.6662	-1443.0165	-1443.4564	-1447.2052	-1447.9908	-1449.8181	-1453.1664	-1454.1184	-1456.7970	-1459.4099	-1459.4843	-1460.0927	-1462.7166	-1465.4237	-1466.3166	-1467.7128	-1470.2885	-1472.6192	-1473.2232	-1475.7990	-1477.5891	-1480.9133	-1480.5588	-1483.4015	-1484.0230	-1485.2923	-1487.2116	-1488.4042	-1489.5794	-1491.4833	-1494.7003	-1495.7157	-1497.0594	-1499.2063	-1501.3400	-1501.0905	-1504.7561	-1504.7342	-1505.8809	-1508.2794	-1509.8792	-1510.8027	-1512.0938	-1514.9738	-1516.6238	-1517.7421	-1519.4841	-1521.3486	-1522.9549	-1524.1739	-1524.1476	-1524.5787	-1527.8373	-1528.7717	-1532.7809	-1533.7241	-1534.5207	-1536.3108	-1536.8120	-1539.2608	-1540.0683	-1541.4142	-1543.1255	-1545.2308	-1544.5808	-1548.7476	-1549.8068	-1552.2075	-1553.9166	-1553.6124	-1554.2580	-1556.4836	-1557.1358	-1558.9128	-1560.9174	-1562.1713	-1562.8235	-1564.6967	-1565.2570	-1567.4563	-1568.4718	-1570.4435	-1570.9797	-1570.2728	-1575.5732	-1575.1508	-1577.4552	-1578.3743	-1580.5387	-1580.0616	-1582.9722	-1583.8935	-1585.0928	-1586.2920	-1587.4759	-1589.2923	-1590.0714	-1590.0889	-1593.0761	-1595.6716	-1595.7963	-1597.0174	-1597.7440	-1598.1379	-1600.0374	-1601.2848	-1604.5981	-1604.7075	-1607.6991	-1607.2833	-1609.9203	-1609.0471
-1391.3109	-1399.5502	-1404.2444	-1408.1332	-1412.8011	-1414.8341	-1418.4866	-1420.2658	-1424.9927	-1427.3540	-1428.3520	-1428.2382	-1432.5581	-1434.9457	-1436.1558	-1437.7446	-1440.4867	-1442.0930	-1443.2573	-1446.3648	-1448.3322	-1449.5489	-1452.0415	-1454.3438	-1455.8253	-1457.4469	-1458.3858	-1458.8059	-1462.5262	-1465.2289	-1466.2991	-1466.4741	-1470.0434	-1472.4923	-1473.6281	-1475.1709	-1476.8822	-1479.9788	-1480.3487	-1481.9637	-1483.7145	-1485.0034	-1486.9883	-1487.4019	-1488.6253	-1491.4046	-1494.5340	-1496.1775	-1496.7662	-1498.5125	-1499.7008	-1501.2612	-1504.2199	-1504.1171	-1505.3491	-1507.2552	-1508.7849	-1511.1769	-1512.8007	-1513.9759	-1515.7003	-1517.6305	-1519.0749	-1520.7775	-1522.7361	-1522.7974	-1523.8850	-1525.3272	-1527.2420	-1529.4655	-1532.5467	-1533.1201	-1533.5556	-1535.2932	-1536.5384	-1538.3723	-1539.7466	-1540.9984	-1541.5258	-1544.2438	-1544.8259	-1547.8372	-1549.2378	-1551.3759	-1552.4460	-1553.2842	-1554.2186	-1555.8468	-1556.5974	-1559.1666	-1560.6810	-1561.8190	-1563.0095	-1564.9572	-1565.0163	-1566.8545	-1567.0296	-1570.3976	-1569.5397	-1570.1021	-1574.0194	-1575.9277	-1577.0000	-1577.9082	-1579.5211	-1580.9435	-1581.9174	-1583.4186	-1583.5893	-1584.7601	-1586.8960	-1588.6424	-1589.4390	-1591.1131	-1591.7981	-1594.6693	-1595.4549	-1596.0983	-1597.3566	-1597.1290	-1599.5035	-1600.7531	-1603.1100	-1604.8279	-1605.9856	-1606.7449	-1608.8743	-1608.8589



